TimeStamp,Delta_TP9,Delta_AF7,Delta_AF8,Delta_TP10,Theta_TP9,Theta_AF7,Theta_AF8,Theta_TP10,Alpha_TP9,Alpha_AF7,Alpha_AF8,Alpha_TP10,Beta_TP9,Beta_AF7,Beta_AF8,Beta_TP10,Gamma_TP9,Gamma_AF7,Gamma_AF8,Gamma_TP10,RAW_TP9,RAW_AF7,RAW_AF8,RAW_TP10,AUX_RIGHT,Mellow,Concentration,Accelerometer_X,Accelerometer_Y,Accelerometer_Z,Gyro_X,Gyro_Y,Gyro_Z,HeadBandOn,HSI_TP9,HSI_AF7,HSI_AF8,HSI_TP10,Battery,Elements
2023-05-12 17:26:26.161,-1.335,0.276,0.263,-0.116,-1.061,-0.085,-0.235,-0.027,-0.420,-0.051,-0.099,0.331,-0.429,0.035,-0.075,0.047,-0.684,-0.347,-0.396,-0.316,800.0,810.0,820.0,830.0,840.0,58.0,8.0,0.1,0.0,0.9,5.2,-3.7,1.8,1,1.0,1.0,1.0,1.0,85.0
2023-05-12 17:26:26.273,-1.423,-0.034,0.143,-0.135,-1.112,-0.284,-0.219,0.038,-0.472,-0.070,-0.048,0.353,-0.435,0.025,-0.091,0.055,-0.682,-0.368,-0.434,-0.331,800.0,810.0,820.0,830.0,840.0,58.0,8.0,0.1,0.0,0.9,5.2,-3.7,1.8,1,1.0,1.0,1.0,1.0,85.0
2023-05-12 17:26:26.467,-1.467,-0.232,0.081,-0.149,-1.132,-0.360,-0.221,0.075,-0.579,-0.104,-0.016,0.365,-0.449,0.025,-0.112,0.061,-0.677,-0.405,-0.461,-0.344,800.0,810.0,820.0,830.0,840.0,58.0,8.0,0.1,0.0,0.9,5.2,-3.7,1.8,1,1.0,1.0,1.0,1.0,85.0
2023-05-12 17:26:26.562,-1.552,-0.360,-0.051,-0.163,-1.150,-0.386,-0.234,0.100,-0.579,-0.137,0.030,0.385,-0.479,0.036,-0.135,0.082,-0.671,-0.406,-0.455,-0.343,800.0,810.0,820.0,830.0,840.0,58.0,8.0,0.1,0.0,0.9,5.2,-3.7,1.8,1,1.0,1.0,1.0,1.0,85.0
2023-05-12 17:26:26.641,-1.556,-0.376,-0.115,-0.150,-1.174,-0.419,-0.260,0.102,-0.579,-0.141,0.134,0.417,-0.484,0.039,-0.125,0.098,-0.673,-0.399,-0.442,-0.314,800.0,810.0,820.0,830.0,840.0,58.0,8.0,0.1,0.0,0.9,5.2,-3.7,1.8,1,1.0,1.0,1.0,1.0,85.0
2023-05-12 17:26:26.902,-1.523,-0.377,-0.148,-0.131,-1.188,-0.431,-0.248,0.089,-0.579,-0.137,0.208,0.481,-0.480,0.039,-0.097,0.121,-0.686,-0.399,-0.442,-0.297,800.0,810.0,820.0,830.0,840.0,58.0,8.0,0.1,0.0,0.9,5.2,-3.7,1.8,1,1.0,1.0,1.0,1.0,85.0
2023-05-12 17:26:27.004,-1.456,-0.336,-0.152,-0.088,-1.258,-0.444,-0.208,0.080,-0.619,-0.121,0.209,0.483,-0.482,0.032,-0.096,0.134,-0.703,-0.404,-0.444,-0.287,800.0,810.0,820.0,830.0,840.0,58.0,8.0,0.1,0.0,0.9,5.2,-3.7,1.8,1,1.0,1.0,1.0,1.0,85.0
2023-05-12 17:26:27.157,-1.445,-0.309,-0.146,-0.040,-1.314,-0.444,-0.209,0.080,-0.863,0.202,0.210,0.483,-0.491,0.017,-0.099,0.144,-0.723,-0.428,-0.459,-0.281,800.0,810.0,820.0,830.0,840.0,58.0,8.0,0.1,0.0,0.9,5.2,-3.7,1.8,1,1.0,1.0,1.0,1.0,85.0
2023-05-12 17:26:27.236,-1.432,-0.272,-0.126,0.045,-1.361,-0.421,-0.227,0.073,-0.879,0.367,0.212,0.483,-0.543,-0.020,-0.060,0.180,-0.722,-0.429,-0.469,-0.276,800.0,810.0,820.0,830.0,840.0,58.0,8.0,0.1,0.0,0.9,5.2,-3.7,1.8,1,1.0,1.0,1.0,1.0,85.0
2023-05-12 17:26:27.422,-1.419,-0.255,-0.096,0.068,-1.378,-0.250,-0.271,0.058,-0.815,0.434,0.218,0.480,-0.573,-0.029,-0.019,0.205,-0.729,-0.376,-0.457,-0.259,800.0,810.0,820.0,830.0,840.0,58.0,8.0,0.1,0.0,0.9,5.2,-3.7,1.8,1,1.0,1.0,1.0,1.0,85.0
2023-05-12 17:26:27.616,-1.404,-0.228,-0.075,0.093,-1.364,-0.152,-0.288,0.069,-0.754,0.448,0.234,0.467,-0.596,-0.017,0.051,0.239,-0.738,-0.343,-0.432,-0.250,800.0,810.0,820.0,830.0,840.0,58.0,8.0,0.1,0.0,0.9,5.2,-3.7,1.8,1,1.0,1.0,1.0,1.0,85.0
2023-05-12 17:26:27.673,-1.378,-0.116,-0.075,0.150,-1.332,-0.047,-0.289,0.099,-0.754,0.449,0.244,0.475,-0.587,-0.011,0.073,0.245,-0.738,-0.321,-0.402,-0.238,800.0,810.0,820.0,830.0,840.0,58.0,8.0,0.1,0.0,0.9,5.2,-3.7,1.8,1,1.0,1.0,1.0,1.0,85.0
2023-05-12 17:26:27.849,-1.374,-0.057,-0.079,0.177,-1.313,-0.024,-0.273,0.096,-0.802,0.449,0.239,0.481,-0.571,-0.011,0.088,0.249,-0.694,-0.303,-0.351,-0.205,800.0,810.0,820.0,830.0,840.0,58.0,8.0,0.1,0.0,0.9,5.2,-3.7,1.8,1,1.0,1.0,1.0,1.0,85.0
2023-05-12 17:26:27.973,-1.380,0.006,-0.052,0.274,-1.292,-0.006,-0.256,0.085,-0.817,0.449,0.231,0.481,-0.531,-0.033,0.106,0.262,-0.668,-0.302,-0.336,-0.188,800.0,810.0,820.0,830.0,840.0,58.0,8.0,0.1,0.0,0.9,5.2,-3.7,1.8,1,1.0,1.0,1.0,1.0,85.0
2023-05-12 17:26:28.088,-1.385,0.016,-0.035,0.342,-1.234,0.022,-0.233,0.078,-0.817,0.449,0.236,0.481,-0.514,-0.049,0.107,0.266,-0.627,-0.303,-0.328,-0.179,800.0,810.0,820.0,830.0,840.0,58.0,8.0,0.1,0.0,0.9,5.2,-3.7,1.8,1,1.0,1.0,1.0,1.0,85.0
2023-05-12 17:26:28.318,-1.396,0.027,-0.029,0.412,-1.182,0.028,-0.227,0.097,-0.772,0.449,0.227,0.518,-0.479,-0.082,0.081,0.254,-0.603,-0.298,-0.328,-0.191,800.0,810.0,820.0,830.0,840.0,58.0,8.0,0.1,0.0,0.9,5.2,-3.7,1.8,1,1.0,1.0,1.0,1.0,85.0
2023-05-12 17:26:28.375,-1.411,0.071,-0.057,0.507,-1.063,0.034,-0.224,0.152,-0.735,0.449,0.151,0.526,-0.467,-0.094,0.063,0.243,-0.578,-0.286,-0.320,-0.206,800.0,810.0,820.0,830.0,840.0,58.0,8.0,0.1,0.0,0.9,5.2,-3.7,1.8,1,1.0,1.0,1.0,1.0,85.0
2023-05-12 17:26:28.620,-1.400,0.089,-0.072,0.520,-1.027,0.033,-0.212,0.165,-0.655,0.449,0.096,0.473,-0.463,-0.100,0.049,0.233,-0.550,-0.240,-0.266,-0.221,800.0,810.0,820.0,830.0,840.0,58.0,8.0,0.1,0.0,0.9,5.2,-3.7,1.8,1,1.0,1.0,1.0,1.0,85.0
2023-05-12 17:26:28.723,-1.344,0.119,-0.087,0.533,-1.014,0.027,-0.182,0.165,-0.623,0.449,0.206,0.473,-0.472,-0.096,0.031,0.221,-0.548,-0.213,-0.234,-0.221,800.0,810.0,820.0,830.0,840.0,58.0,8.0,0.1,0.0,0.9,5.2,-3.7,1.8,1,1.0,1.0,1.0,1.0,85.0
2023-05-12 17:26:28.831,-1.320,0.129,-0.115,0.546,-1.015,-0.032,-0.112,0.196,-0.625,0.432,0.287,0.473,-0.474,-0.098,0.013,0.208,-0.546,-0.173,-0.207,-0.228,800.0,810.0,820.0,830.0,840.0,58.0,8.0,0.1,0.0,0.9,5.2,-3.7,1.8,1,1.0,1.0,1.0,1.0,85.0
2023-05-12 17:26:29.067,-1.285,0.134,-0.170,0.564,-1.015,-0.100,-0.092,0.212,-0.639,0.258,0.308,0.473,-0.478,-0.127,-0.046,0.161,-0.535,-0.156,-0.215,-0.232,800.0,810.0,820.0,830.0,840.0,58.0,8.0,0.1,0.0,0.9,5.2,-3.7,1.8,1,1.0,1.0,1.0,1.0,85.0
2023-05-12 17:26:29.138,-1.206,0.130,-0.276,0.602,-1.018,-0.249,-0.070,0.215,-0.661,0.113,0.309,0.470,-0.486,-0.143,-0.077,0.144,-0.517,-0.137,-0.228,-0.232,800.0,810.0,820.0,830.0,840.0,58.0,8.0,0.1,0.0,0.9,5.2,-3.7,1.8,1,1.0,1.0,1.0,1.0,85.0
2023-05-12 17:26:29.322,-1.171,0.112,-0.291,0.626,-1.026,-0.279,-0.065,0.207,-0.743,-0.237,0.353,0.450,-0.498,-0.150,-0.098,0.135,-0.489,-0.104,-0.246,-0.238,800.0,810.0,820.0,830.0,840.0,58.0,8.0,0.1,0.0,0.9,5.2,-3.7,1.8,1,1.0,1.0,1.0,1.0,85.0
2023-05-12 17:26:29.433,-1.110,0.075,-0.281,0.679,-1.040,-0.278,-0.065,0.203,-0.765,-0.190,0.377,0.404,-0.533,-0.142,-0.122,0.112,-0.491,-0.094,-0.252,-0.255,800.0,810.0,820.0,830.0,840.0,58.0,8.0,0.1,0.0,0.9,5.2,-3.7,1.8,1,1.0,1.0,1.0,1.0,85.0
2023-05-12 17:26:29.530,-1.089,0.111,-0.291,0.692,-1.072,-0.240,-0.071,0.205,-0.771,-0.091,0.400,0.351,-0.552,-0.132,-0.135,0.082,-0.515,-0.070,-0.279,-0.305,800.0,810.0,820.0,830.0,840.0,58.0,8.0,0.1,0.0,0.9,5.2,-3.7,1.8,1,1.0,1.0,1.0,1.0,85.0
2023-05-12 17:26:29.736,-1.063,0.179,-0.315,0.682,-1.079,-0.214,-0.075,0.202,-0.623,0.072,0.411,0.312,-0.575,-0.102,-0.141,-0.020,-0.531,-0.057,-0.300,-0.318,800.0,810.0,820.0,830.0,840.0,58.0,8.0,0.1,0.0,0.9,5.2,-3.7,1.8,1,1.0,1.0,1.0,1.0,85.0
2023-05-12 17:26:29.826,-1.014,0.286,-0.368,0.501,-1.114,-0.183,-0.078,0.168,-0.579,0.098,0.418,0.312,-0.581,-0.086,-0.121,-0.007,-0.553,-0.048,-0.321,-0.315,800.0,810.0,820.0,830.0,840.0,58.0,8.0,0.1,0.0,0.9,5.2,-3.7,1.8,1,1.0,1.0,1.0,1.0,85.0
2023-05-12 17:26:30.023,-1.007,0.300,-0.372,0.351,-1.150,-0.173,-0.072,0.148,-0.624,0.167,0.422,0.144,-0.580,-0.075,-0.097,-0.003,-0.599,-0.055,-0.368,-0.266,800.0,810.0,820.0,830.0,840.0,58.0,8.0,0.1,0.0,0.9,5.2,-3.7,1.8,1,1.0,1.0,1.0,1.0,85.0
2023-05-12 17:26:30.131,-1.024,0.291,-0.362,0.155,-1.177,-0.156,-0.065,0.160,-0.635,0.209,0.422,0.192,-0.551,-0.076,-0.078,0.021,-0.613,-0.067,-0.404,-0.314,800.0,810.0,820.0,830.0,840.0,58.0,8.0,0.1,0.0,0.9,5.2,-3.7,1.8,1,1.0,1.0,1.0,1.0,85.0
2023-05-12 17:26:30.193,-1.040,0.285,-0.355,0.164,-1.170,-0.097,-0.073,0.223,-0.656,0.214,0.413,0.255,-0.534,-0.084,-0.082,0.035,-0.626,-0.099,-0.461,-0.389,800.0,810.0,820.0,830.0,840.0,58.0,8.0,0.1,0.0,0.9,5.2,-3.7,1.8,1,1.0,1.0,1.0,1.0,85.0
2023-05-12 17:26:30.443,-1.061,0.284,-0.339,0.205,-1.157,-0.068,-0.087,0.220,-0.707,0.214,0.381,0.300,-0.502,-0.090,-0.089,0.125,-0.639,-0.122,-0.457,-0.378,800.0,810.0,820.0,830.0,840.0,58.0,8.0,0.1,0.0,0.9,5.2,-3.7,1.8,1,1.0,1.0,1.0,1.0,85.0
2023-05-12 17:26:30.548,-1.135,0.282,-0.295,0.278,-1.130,-0.026,-0.113,0.176,-0.692,0.214,0.341,0.304,-0.478,-0.085,-0.084,0.161,-0.664,-0.154,-0.437,-0.361,800.0,810.0,820.0,830.0,840.0,58.0,8.0,0.1,0.0,0.9,5.2,-3.7,1.8,1,1.0,1.0,1.0,1.0,85.0
2023-05-12 17:26:30.748,-1.173,0.280,-0.279,0.278,-1.115,-0.020,-0.127,0.176,-0.689,0.214,0.222,0.304,-0.449,-0.076,-0.074,0.161,-0.742,-0.217,-0.411,-0.344,800.0,810.0,820.0,830.0,840.0,58.0,8.0,0.1,0.0,0.9,5.2,-3.7,1.8,1,1.0,1.0,1.0,1.0,85.0
2023-05-12 17:26:30.850,-1.239,0.297,-0.213,0.278,-1.106,-0.026,-0.143,0.176,-0.687,0.214,0.168,0.304,-0.405,-0.029,-0.043,0.161,-0.778,-0.228,-0.416,-0.344,800.0,810.0,820.0,830.0,840.0,58.0,8.0,0.1,0.0,0.9,5.2,-3.7,1.8,1,1.0,1.0,1.0,1.0,85.0
2023-05-12 17:26:30.902,-1.265,0.335,-0.108,0.278,-1.106,-0.030,-0.156,0.176,-0.683,0.214,0.152,0.304,-0.395,-0.000,-0.023,0.161,-0.817,-0.223,-0.430,-0.344,800.0,810.0,820.0,830.0,840.0,58.0,8.0,0.1,0.0,0.9,5.2,-3.7,1.8,1,1.0,1.0,1.0,1.0,85.0
2023-05-12 17:26:31.144,-1.284,0.404,0.038,0.278,-1.102,0.019,-0.134,0.176,-0.580,0.210,0.142,0.304,-0.385,0.025,0.014,0.161,-0.824,-0.229,-0.423,-0.344,800.0,810.0,820.0,830.0,840.0,58.0,8.0,0.1,0.0,0.9,5.2,-3.7,1.8,1,1.0,1.0,1.0,1.0,85.0
2023-05-12 17:26:31.311,-1.294,0.601,0.284,0.278,-1.054,0.177,-0.064,0.176,-0.514,0.151,0.123,0.304,-0.378,0.028,0.026,0.161,-0.824,-0.244,-0.401,-0.344,800.0,810.0,820.0,830.0,840.0,58.0,8.0,0.1,0.0,0.9,5.2,-3.7,1.8,1,1.0,1.0,1.0,1.0,85.0
2023-05-12 17:26:31.406,-1.270,0.676,0.345,0.271,-1.014,0.228,-0.046,0.163,-0.442,0.066,0.181,0.209,-0.370,0.030,0.035,0.162,-0.784,-0.271,-0.335,-0.377,800.0,810.0,820.0,830.0,840.0,58.0,8.0,0.1,0.0,0.9,5.2,-3.7,1.8,1,1.0,1.0,1.0,1.0,85.0
2023-05-12 17:26:31.511,-1.173,0.753,0.402,0.321,-0.977,0.251,-0.036,0.156,-0.428,0.065,0.291,0.180,-0.359,0.032,0.068,0.218,-0.754,-0.274,-0.308,-0.374,800.0,810.0,820.0,830.0,840.0,58.0,8.0,0.1,0.0,0.9,5.2,-3.7,1.8,1,1.0,1.0,1.0,1.0,85.0
2023-05-12 17:26:31.648,-1.121,0.766,0.421,0.373,-0.917,0.262,0.006,0.128,-0.422,0.058,0.416,0.169,-0.357,0.031,0.097,0.266,-0.716,-0.250,-0.288,-0.310,800.0,810.0,820.0,830.0,840.0,58.0,8.0,0.1,0.0,0.9,5.2,-3.7,1.8,1,1.0,1.0,1.0,1.0,85.0
2023-05-12 17:26:31.847,-1.080,0.770,0.439,0.373,-0.892,0.263,0.031,0.128,-0.416,0.040,0.444,0.169,-0.364,0.028,0.139,0.266,-0.701,-0.221,-0.290,-0.310,800.0,810.0,820.0,830.0,840.0,58.0,8.0,0.1,0.0,0.9,5.2,-3.7,1.8,1,1.0,1.0,1.0,1.0,85.0
2023-05-12 17:26:31.949,-1.042,0.766,0.467,0.373,-0.873,0.248,0.055,0.128,-0.403,0.019,0.444,0.169,-0.373,0.029,0.144,0.266,-0.682,-0.186,-0.293,-0.310,800.0,810.0,820.0,830.0,840.0,58.0,8.0,0.1,0.0,0.9,5.2,-3.7,1.8,1,1.0,1.0,1.0,1.0,85.0
2023-05-12 17:26:32.158,-1.033,0.763,0.478,0.373,-0.869,0.235,0.062,0.128,-0.367,0.043,0.444,0.169,-0.387,0.033,0.143,0.266,-0.642,-0.123,-0.288,-0.310,800.0,810.0,820.0,830.0,840.0,58.0,8.0,0.1,0.0,0.9,5.2,-3.7,1.8,1,1.0,1.0,1.0,1.0,85.0
2023-05-12 17:26:32.306,-1.009,0.758,0.509,0.373,-0.854,0.228,0.077,0.128,-0.350,0.059,0.444,0.169,-0.417,0.033,0.131,0.266,-0.631,-0.101,-0.281,-0.310,800.0,810.0,820.0,830.0,840.0,58.0,8.0,0.1,0.0,0.9,5.2,-3.7,1.8,1,1.0,1.0,1.0,1.0,85.0
2023-05-12 17:26:32.397,-0.993,0.754,0.518,0.373,-0.806,0.263,0.140,0.128,-0.346,0.068,0.444,0.169,-0.424,0.023,0.123,0.266,-0.621,-0.076,-0.269,-0.310,800.0,810.0,820.0,830.0,840.0,58.0,8.0,0.1,0.0,0.9,5.2,-3.7,1.8,1,1.0,1.0,1.0,1.0,85.0
2023-05-12 17:26:32.565,-0.981,0.738,0.510,0.373,-0.794,0.278,0.170,0.128,-0.327,0.085,0.444,0.169,-0.415,0.003,0.106,0.266,-0.616,-0.067,-0.262,-0.310,800.0,810.0,820.0,830.0,840.0,58.0,8.0,0.1,0.0,0.9,5.2,-3.7,1.8,1,1.0,1.0,1.0,1.0,85.0
2023-05-12 17:26:32.650,-0.989,0.616,0.425,0.373,-0.818,0.202,0.174,0.128,-0.316,0.063,0.444,0.169,-0.413,0.001,0.096,0.266,-0.608,-0.058,-0.252,-0.310,800.0,810.0,820.0,830.0,840.0,58.0,8.0,0.1,0.0,0.9,5.2,-3.7,1.8,1,1.0,1.0,1.0,1.0,85.0
2023-05-12 17:26:32.889,-1.017,0.487,0.365,0.373,-0.852,0.119,0.154,0.128,-0.316,0.053,0.444,0.043,-0.418,0.001,0.084,0.266,-0.595,-0.037,-0.225,-0.310,800.0,810.0,820.0,830.0,840.0,58.0,8.0,0.1,0.0,0.9,5.2,-3.7,1.8,1,1.0,1.0,1.0,1.0,85.0
2023-05-12 17:26:32.997,-1.111,0.149,0.284,0.460,-0.893,0.046,0.134,-0.017,-0.348,0.043,0.444,0.229,-0.445,0.007,0.057,0.199,-0.596,-0.027,-0.213,-0.001,800.0,810.0,820.0,830.0,840.0,58.0,8.0,0.1,0.0,0.9,5.2,-3.7,1.8,1,1.0,1.0,1.0,1.0,85.0
2023-05-12 17:26:33.057,-1.170,-0.001,0.257,0.493,-0.960,-0.014,0.079,-0.095,-0.402,0.030,0.434,0.345,-0.458,0.019,0.038,0.212,-0.590,-0.021,-0.194,-0.016,800.0,810.0,820.0,830.0,840.0,58.0,8.0,0.1,0.0,0.9,5.2,-3.7,1.8,1,1.0,1.0,1.0,1.0,85.0
2023-05-12 17:26:33.240,-1.236,-0.107,0.230,0.521,-0.981,-0.039,0.035,-0.133,-0.477,0.156,0.298,0.418,-0.449,0.042,-0.008,0.210,-0.572,-0.030,-0.187,-0.024,800.0,810.0,820.0,830.0,840.0,58.0,8.0,0.1,0.0,0.9,5.2,-3.7,1.8,1,1.0,1.0,1.0,1.0,85.0
2023-05-12 17:26:33.358,-1.356,-0.180,0.166,0.531,-1.015,-0.087,-0.034,-0.151,-0.477,0.199,0.201,0.423,-0.428,0.046,-0.021,0.200,-0.550,-0.044,-0.186,-0.028,800.0,810.0,820.0,830.0,840.0,58.0,8.0,0.1,0.0,0.9,5.2,-3.7,1.8,1,1.0,1.0,1.0,1.0,85.0
2023-05-12 17:26:33.602,-1.382,-0.179,0.139,0.514,-1.023,-0.089,-0.043,-0.140,-0.477,0.212,0.194,0.423,-0.411,0.047,-0.024,0.189,-0.517,-0.065,-0.204,-0.039,800.0,810.0,820.0,830.0,840.0,58.0,8.0,0.1,0.0,0.9,5.2,-3.7,1.8,1,1.0,1.0,1.0,1.0,85.0
2023-05-12 17:26:33.674,-1.421,-0.178,0.079,0.467,-1.031,-0.084,-0.041,-0.133,-0.467,0.212,0.238,0.423,-0.413,0.044,-0.021,0.182,-0.510,-0.059,-0.212,-0.048,800.0,810.0,820.0,830.0,840.0,58.0,8.0,0.1,0.0,0.9,5.2,-3.7,1.8,1,1.0,1.0,1.0,1.0,85.0
2023-05-12 17:26:33.773,-1.467,-0.204,0.038,0.443,-1.086,-0.127,-0.074,-0.150,-0.470,0.212,0.270,0.423,-0.426,0.043,-0.021,0.184,-0.495,-0.042,-0.209,-0.068,800.0,810.0,820.0,830.0,840.0,58.0,8.0,0.1,0.0,0.9,5.2,-3.7,1.8,1,1.0,1.0,1.0,1.0,85.0
2023-05-12 17:26:33.951,-1.520,-0.255,-0.011,0.422,-1.120,-0.197,-0.135,-0.169,-0.476,0.196,0.277,0.436,-0.453,0.042,-0.033,0.188,-0.486,-0.043,-0.205,-0.080,800.0,810.0,820.0,830.0,840.0,58.0,8.0,0.1,0.0,0.9,5.2,-3.7,1.8,1,1.0,1.0,1.0,1.0,85.0
2023-05-12 17:26:34.097,-1.554,-0.388,-0.111,0.415,-1.146,-0.337,-0.315,-0.202,-0.489,0.192,0.262,0.442,-0.464,0.044,-0.042,0.188,-0.478,-0.049,-0.205,-0.090,800.0,810.0,820.0,830.0,840.0,58.0,8.0,0.1,0.0,0.9,5.2,-3.7,1.8,1,1.0,1.0,1.0,1.0,85.0
2023-05-12 17:26:34.289,-1.538,-0.444,-0.124,0.420,-1.150,-0.354,-0.373,-0.194,-0.501,0.182,0.259,0.442,-0.474,0.047,-0.046,0.195,-0.479,-0.061,-0.226,-0.105,800.0,810.0,820.0,830.0,840.0,58.0,8.0,0.1,0.0,0.9,5.2,-3.7,1.8,1,1.0,1.0,1.0,1.0,85.0
2023-05-12 17:26:34.362,-1.480,-0.450,-0.066,0.395,-1.157,-0.355,-0.391,-0.210,-0.529,0.184,0.241,0.442,-0.487,0.048,-0.052,0.196,-0.487,-0.067,-0.249,-0.118,800.0,810.0,820.0,830.0,840.0,58.0,8.0,0.1,0.0,0.9,5.2,-3.7,1.8,1,1.0,1.0,1.0,1.0,85.0
2023-05-12 17:26:34.547,-1.447,-0.241,0.023,0.372,-1.169,-0.368,-0.315,-0.221,-0.559,0.190,0.227,0.433,-0.491,0.041,-0.063,0.191,-0.513,-0.078,-0.316,-0.144,800.0,810.0,820.0,830.0,840.0,58.0,8.0,0.1,0.0,0.9,5.2,-3.7,1.8,1,1.0,1.0,1.0,1.0,85.0
2023-05-12 17:26:34.722,-1.421,0.071,0.191,0.339,-1.166,-0.341,-0.208,-0.207,-0.558,0.203,0.274,0.372,-0.503,0.028,-0.094,0.177,-0.535,-0.081,-0.344,-0.150,800.0,810.0,820.0,830.0,840.0,58.0,8.0,0.1,0.0,0.9,5.2,-3.7,1.8,1,1.0,1.0,1.0,1.0,85.0
2023-05-12 17:26:34.797,-1.408,0.605,0.562,0.227,-1.157,-0.229,0.006,-0.174,-0.548,0.206,0.289,0.315,-0.515,0.036,-0.106,0.178,-0.566,-0.082,-0.358,-0.158,800.0,810.0,820.0,830.0,840.0,58.0,8.0,0.1,0.0,0.9,5.2,-3.7,1.8,1,1.0,1.0,1.0,1.0,85.0
2023-05-12 17:26:34.999,-1.409,0.632,0.685,0.179,-1.160,-0.214,0.065,-0.179,-0.501,0.148,0.289,0.207,-0.529,0.035,-0.114,0.186,-0.649,-0.086,-0.352,-0.186,800.0,810.0,820.0,830.0,840.0,58.0,8.0,0.1,0.0,0.9,5.2,-3.7,1.8,1,1.0,1.0,1.0,1.0,85.0
2023-05-12 17:26:35.085,-1.423,0.692,0.799,0.152,-1.166,-0.204,0.094,-0.201,-0.476,0.067,0.285,0.165,-0.541,0.027,-0.116,0.211,-0.689,-0.098,-0.344,-0.200,800.0,810.0,820.0,830.0,840.0,58.0,8.0,0.1,0.0,0.9,5.2,-3.7,1.8,1,1.0,1.0,1.0,1.0,85.0
2023-05-12 17:26:35.190,-1.434,0.764,0.817,0.172,-1.178,-0.192,0.100,-0.240,-0.460,-0.003,0.269,0.133,-0.538,0.039,-0.113,0.220,-0.738,-0.142,-0.346,-0.213,800.0,810.0,820.0,830.0,840.0,58.0,8.0,0.1,0.0,0.9,5.2,-3.7,1.8,1,1.0,1.0,1.0,1.0,85.0
2023-05-12 17:26:35.417,-1.445,0.799,0.824,0.216,-1.180,-0.183,0.090,-0.216,-0.464,0.046,0.243,0.097,-0.531,0.058,-0.094,0.221,-0.757,-0.159,-0.359,-0.210,800.0,810.0,820.0,830.0,840.0,58.0,8.0,0.1,0.0,0.9,5.2,-3.7,1.8,1,1.0,1.0,1.0,1.0,85.0
2023-05-12 17:26:35.517,-1.495,0.814,0.825,0.216,-1.160,-0.187,0.080,-0.216,-0.464,0.084,0.227,0.097,-0.522,0.067,-0.075,0.221,-0.781,-0.164,-0.370,-0.210,800.0,810.0,820.0,830.0,840.0,58.0,8.0,0.1,0.0,0.9,5.2,-3.7,1.8,1,1.0,1.0,1.0,1.0,85.0
2023-05-12 17:26:35.669,-1.529,0.814,0.827,0.216,-1.138,-0.202,0.078,-0.216,-0.478,0.147,0.151,0.097,-0.504,0.074,-0.057,0.221,-0.821,-0.137,-0.369,-0.210,800.0,810.0,820.0,830.0,840.0,58.0,8.0,0.1,0.0,0.9,5.2,-3.7,1.8,1,1.0,1.0,1.0,1.0,85.0
2023-05-12 17:26:35.795,-1.571,0.816,0.825,0.216,-1.105,-0.202,0.077,-0.216,-0.471,0.176,0.095,0.097,-0.459,0.097,-0.036,0.221,-0.823,-0.111,-0.365,-0.210,800.0,810.0,820.0,830.0,840.0,58.0,8.0,0.1,0.0,0.9,5.2,-3.7,1.8,1,1.0,1.0,1.0,1.0,85.0
2023-05-12 17:26:35.929,-1.543,0.814,0.822,0.358,-1.018,-0.149,0.078,0.383,-0.464,0.204,0.098,0.564,-0.445,0.111,-0.033,0.138,-0.786,-0.065,-0.356,0.091,800.0,810.0,820.0,830.0,840.0,58.0,8.0,0.1,0.0,0.9,5.2,-3.7,1.8,1,1.0,1.0,1.0,1.0,85.0
2023-05-12 17:26:36.140,-1.479,0.798,0.812,0.349,-0.987,-0.136,0.067,0.340,-0.464,0.224,0.101,0.682,-0.435,0.130,-0.032,0.140,-0.760,-0.051,-0.346,0.065,800.0,810.0,820.0,830.0,840.0,58.0,8.0,0.1,0.0,0.9,5.2,-3.7,1.8,1,1.0,1.0,1.0,1.0,85.0
2023-05-12 17:26:36.202,-1.364,0.621,0.713,0.367,-0.982,-0.206,-0.028,0.277,-0.467,0.224,0.100,0.731,-0.439,0.135,-0.033,0.165,-0.737,-0.043,-0.332,0.034,800.0,810.0,820.0,830.0,840.0,58.0,8.0,0.1,0.0,0.9,5.2,-3.7,1.8,1,1.0,1.0,1.0,1.0,85.0
2023-05-12 17:26:36.413,-1.335,0.324,0.603,0.367,-0.989,-0.265,-0.099,0.261,-0.478,0.224,0.004,0.752,-0.451,0.133,-0.036,0.199,-0.705,-0.040,-0.292,-0.002,800.0,810.0,820.0,830.0,840.0,58.0,8.0,0.1,0.0,0.9,5.2,-3.7,1.8,1,1.0,1.0,1.0,1.0,85.0
2023-05-12 17:26:36.548,-1.309,0.282,0.285,0.348,-0.990,-0.278,-0.160,0.273,-0.478,0.224,0.002,0.753,-0.485,0.124,-0.050,0.263,-0.691,-0.045,-0.273,-0.013,800.0,810.0,820.0,830.0,840.0,58.0,8.0,0.1,0.0,0.9,5.2,-3.7,1.8,1,1.0,1.0,1.0,1.0,85.0
2023-05-12 17:26:36.624,-1.299,0.261,0.135,0.347,-0.981,-0.316,-0.223,0.362,-0.457,0.228,0.022,0.753,-0.498,0.117,-0.059,0.288,-0.659,-0.049,-0.249,-0.044,800.0,810.0,820.0,830.0,840.0,58.0,8.0,0.1,0.0,0.9,5.2,-3.7,1.8,1,1.0,1.0,1.0,1.0,85.0
2023-05-12 17:26:36.804,-1.288,0.049,0.025,0.348,-0.979,-0.332,-0.238,0.396,-0.476,0.237,0.022,0.755,-0.512,0.109,-0.074,0.311,-0.651,-0.053,-0.238,-0.058,800.0,810.0,820.0,830.0,840.0,58.0,8.0,0.1,0.0,0.9,5.2,-3.7,1.8,1,1.0,1.0,1.0,1.0,85.0
2023-05-12 17:26:36.947,-1.267,-0.193,-0.062,0.325,-0.972,-0.362,-0.228,0.416,-0.491,0.236,0.022,0.756,-0.513,0.111,-0.079,0.311,-0.652,-0.060,-0.220,-0.066,800.0,810.0,820.0,830.0,840.0,58.0,8.0,0.1,0.0,0.9,5.2,-3.7,1.8,1,1.0,1.0,1.0,1.0,85.0
2023-05-12 17:26:37.137,-1.257,-0.189,-0.081,0.309,-0.967,-0.365,-0.208,0.414,-0.498,0.213,0.014,0.741,-0.515,0.108,-0.080,0.311,-0.665,-0.079,-0.167,-0.056,800.0,810.0,820.0,830.0,840.0,58.0,8.0,0.1,0.0,0.9,5.2,-3.7,1.8,1,1.0,1.0,1.0,1.0,85.0
2023-05-12 17:26:37.245,-1.235,-0.105,-0.134,0.263,-0.963,-0.363,-0.188,0.391,-0.511,0.186,0.011,0.737,-0.542,0.102,-0.063,0.348,-0.675,-0.099,-0.148,-0.048,800.0,810.0,820.0,830.0,840.0,58.0,8.0,0.1,0.0,0.9,5.2,-3.7,1.8,1,1.0,1.0,1.0,1.0,85.0
2023-05-12 17:26:37.330,-1.236,-0.049,-0.182,0.231,-0.978,-0.388,-0.157,0.355,-0.535,0.162,0.013,0.724,-0.563,0.105,-0.044,0.371,-0.711,-0.149,-0.137,-0.044,800.0,810.0,820.0,830.0,840.0,58.0,8.0,0.1,0.0,0.9,5.2,-3.7,1.8,1,1.0,1.0,1.0,1.0,85.0
2023-05-12 17:26:37.548,-1.260,0.002,-0.234,0.201,-1.003,-0.417,-0.147,0.346,-0.565,0.068,0.114,0.670,-0.596,0.125,0.006,0.409,-0.735,-0.167,-0.137,-0.049,800.0,810.0,820.0,830.0,840.0,58.0,8.0,0.1,0.0,0.9,5.2,-3.7,1.8,1,1.0,1.0,1.0,1.0,85.0
2023-05-12 17:26:37.668,-1.392,0.048,-0.345,0.135,-1.054,-0.451,-0.172,0.330,-0.562,0.061,0.265,0.662,-0.604,0.139,0.029,0.417,-0.759,-0.177,-0.139,-0.055,800.0,810.0,820.0,830.0,840.0,58.0,8.0,0.1,0.0,0.9,5.2,-3.7,1.8,1,1.0,1.0,1.0,1.0,85.0
2023-05-12 17:26:37.837,-1.459,0.047,-0.393,0.103,-1.070,-0.437,-0.206,0.324,-0.537,0.066,0.292,0.657,-0.606,0.148,0.047,0.418,-0.786,-0.171,-0.156,-0.066,800.0,810.0,820.0,830.0,840.0,58.0,8.0,0.1,0.0,0.9,5.2,-3.7,1.8,1,1.0,1.0,1.0,1.0,85.0
2023-05-12 17:26:37.954,-1.473,0.028,-0.455,0.098,-1.081,-0.409,-0.235,0.322,-0.535,0.070,0.306,0.655,-0.607,0.147,0.073,0.403,-0.780,-0.164,-0.172,-0.068,800.0,810.0,820.0,830.0,840.0,58.0,8.0,0.1,0.0,0.9,5.2,-3.7,1.8,1,1.0,1.0,1.0,1.0,85.0
2023-05-12 17:26:38.018,-1.432,0.017,-0.453,0.111,-1.080,-0.343,-0.205,0.311,-0.542,0.072,0.313,0.668,-0.611,0.144,0.081,0.390,-0.760,-0.176,-0.210,-0.061,800.0,810.0,820.0,830.0,840.0,58.0,8.0,0.1,0.0,0.9,5.2,-3.7,1.8,1,1.0,1.0,1.0,1.0,85.0
2023-05-12 17:26:38.218,-1.388,0.010,-0.434,0.122,-1.073,-0.315,-0.161,0.290,-0.704,0.058,0.313,0.724,-0.602,0.138,0.094,0.367,-0.764,-0.190,-0.229,-0.052,800.0,810.0,820.0,830.0,840.0,58.0,8.0,0.1,0.0,0.9,5.2,-3.7,1.8,1,1.0,1.0,1.0,1.0,85.0
2023-05-12 17:26:38.411,-1.328,0.011,-0.399,0.138,-1.083,-0.280,-0.106,0.248,-0.816,0.047,0.317,0.761,-0.587,0.128,0.100,0.362,-0.774,-0.199,-0.249,-0.042,800.0,810.0,820.0,830.0,840.0,58.0,8.0,0.1,0.0,0.9,5.2,-3.7,1.8,1,1.0,1.0,1.0,1.0,85.0
2023-05-12 17:26:38.556,-1.304,0.025,-0.386,0.150,-1.104,-0.274,-0.105,0.239,-0.861,0.050,0.320,0.790,-0.574,0.115,0.102,0.363,-0.776,-0.193,-0.288,-0.032,800.0,810.0,820.0,830.0,840.0,58.0,8.0,0.1,0.0,0.9,5.2,-3.7,1.8,1,1.0,1.0,1.0,1.0,85.0
2023-05-12 17:26:38.654,-1.278,0.079,-0.385,0.165,-1.129,-0.272,-0.118,0.237,-0.735,0.050,0.325,0.800,-0.567,0.093,0.094,0.367,-0.759,-0.181,-0.300,-0.043,800.0,810.0,820.0,830.0,840.0,58.0,8.0,0.1,0.0,0.9,5.2,-3.7,1.8,1,1.0,1.0,1.0,1.0,85.0
2023-05-12 17:26:38.721,-1.272,0.087,-0.389,0.192,-1.166,-0.273,-0.164,0.257,-0.593,0.050,0.329,0.809,-0.568,0.082,0.084,0.360,-0.693,-0.150,-0.294,-0.096,800.0,810.0,820.0,830.0,840.0,58.0,8.0,0.1,0.0,0.9,5.2,-3.7,1.8,1,1.0,1.0,1.0,1.0,85.0
2023-05-12 17:26:39.002,-1.267,0.072,-0.386,0.233,-1.171,-0.279,-0.190,0.264,-0.534,0.034,0.329,0.813,-0.580,0.042,0.064,0.321,-0.652,-0.135,-0.285,-0.123,800.0,810.0,820.0,830.0,840.0,58.0,8.0,0.1,0.0,0.9,5.2,-3.7,1.8,1,1.0,1.0,1.0,1.0,85.0
2023-05-12 17:26:39.093,-1.259,0.014,-0.338,0.305,-1.176,-0.300,-0.229,0.263,-0.515,0.005,0.329,0.812,-0.583,0.019,0.060,0.304,-0.618,-0.125,-0.279,-0.136,800.0,810.0,820.0,830.0,840.0,58.0,8.0,0.1,0.0,0.9,5.2,-3.7,1.8,1,1.0,1.0,1.0,1.0,85.0
2023-05-12 17:26:39.257,-1.258,0.004,-0.315,0.318,-1.182,-0.313,-0.229,0.264,-0.488,0.062,0.279,0.780,-0.574,-0.005,0.060,0.294,-0.580,-0.126,-0.265,-0.123,800.0,810.0,820.0,830.0,840.0,58.0,8.0,0.1,0.0,0.9,5.2,-3.7,1.8,1,1.0,1.0,1.0,1.0,85.0
2023-05-12 17:26:39.353,-1.265,0.056,-0.300,0.295,-1.189,-0.333,-0.224,0.265,-0.480,0.044,0.198,0.779,-0.513,-0.043,0.048,0.275,-0.575,-0.140,-0.252,-0.121,800.0,810.0,820.0,830.0,840.0,58.0,8.0,0.1,0.0,0.9,5.2,-3.7,1.8,1,1.0,1.0,1.0,1.0,85.0
2023-05-12 17:26:39.534,-1.282,0.102,-0.298,0.270,-1.203,-0.393,-0.265,0.226,-0.482,0.034,0.137,0.779,-0.476,-0.047,0.034,0.260,-0.580,-0.170,-0.229,-0.152,800.0,810.0,820.0,830.0,840.0,58.0,8.0,0.1,0.0,0.9,5.2,-3.7,1.8,1,1.0,1.0,1.0,1.0,85.0
2023-05-12 17:26:39.682,-1.310,0.138,-0.282,0.242,-1.220,-0.420,-0.330,0.179,-0.482,0.015,0.104,0.779,-0.434,-0.038,0.009,0.226,-0.583,-0.178,-0.221,-0.172,800.0,810.0,820.0,830.0,840.0,58.0,8.0,0.1,0.0,0.9,5.2,-3.7,1.8,1,1.0,1.0,1.0,1.0,85.0
2023-05-12 17:26:39.792,-1.375,0.168,-0.243,0.198,-1.262,-0.439,-0.505,0.081,-0.482,0.012,0.091,0.779,-0.432,-0.039,-0.001,0.208,-0.578,-0.178,-0.207,-0.185,800.0,810.0,820.0,830.0,840.0,58.0,8.0,0.1,0.0,0.9,5.2,-3.7,1.8,1,1.0,1.0,1.0,1.0,85.0
2023-05-12 17:26:40.000,-1.397,0.168,-0.232,0.202,-1.269,-0.427,-0.584,0.043,-0.482,0.013,0.069,0.749,-0.436,-0.041,-0.012,0.193,-0.542,-0.170,-0.169,-0.204,800.0,810.0,820.0,830.0,840.0,58.0,8.0,0.1,0.0,0.9,5.2,-3.7,1.8,1,1.0,1.0,1.0,1.0,85.0
2023-05-12 17:26:40.027,-1.404,0.129,-0.234,0.237,-1.271,-0.412,-0.644,0.010,-0.482,0.021,0.040,0.687,-0.432,-0.036,-0.034,0.170,-0.520,-0.169,-0.163,-0.211,800.0,810.0,820.0,830.0,840.0,58.0,8.0,0.1,0.0,0.9,5.2,-3.7,1.8,1,1.0,1.0,1.0,1.0,85.0
2023-05-12 17:26:40.216,-1.389,0.090,-0.239,0.253,-1.294,-0.412,-0.663,-0.031,-0.480,0.021,0.026,0.607,-0.420,-0.033,-0.040,0.157,-0.495,-0.181,-0.189,-0.202,800.0,810.0,820.0,830.0,840.0,58.0,8.0,0.1,0.0,0.9,5.2,-3.7,1.8,1,1.0,1.0,1.0,1.0,85.0
2023-05-12 17:26:40.352,-1.368,0.050,-0.241,0.261,-1.322,-0.416,-0.626,-0.014,-0.542,0.018,-0.046,0.562,-0.397,-0.029,-0.038,0.131,-0.496,-0.194,-0.210,-0.192,800.0,810.0,820.0,830.0,840.0,58.0,8.0,0.1,0.0,0.9,5.2,-3.7,1.8,1,1.0,1.0,1.0,1.0,85.0
2023-05-12 17:26:40.450,-1.342,-0.001,-0.253,0.271,-1.371,-0.401,-0.543,0.090,-0.649,0.018,-0.114,0.487,-0.391,-0.031,-0.041,0.118,-0.501,-0.213,-0.226,-0.186,800.0,810.0,820.0,830.0,840.0,58.0,8.0,0.1,0.0,0.9,5.2,-3.7,1.8,1,1.0,1.0,1.0,1.0,85.0
2023-05-12 17:26:40.650,-1.320,-0.019,-0.270,0.283,-1.358,-0.390,-0.518,0.137,-0.772,0.018,-0.175,0.389,-0.391,-0.038,-0.054,0.102,-0.516,-0.253,-0.242,-0.196,800.0,810.0,820.0,830.0,840.0,58.0,8.0,0.1,0.0,0.9,5.2,-3.7,1.8,1,1.0,1.0,1.0,1.0,85.0
2023-05-12 17:26:40.826,-1.252,-0.087,-0.294,0.327,-1.319,-0.380,-0.495,0.171,-0.817,0.003,-0.169,0.351,-0.414,-0.062,-0.092,0.059,-0.521,-0.267,-0.244,-0.204,800.0,810.0,820.0,830.0,840.0,58.0,8.0,0.1,0.0,0.9,5.2,-3.7,1.8,1,1.0,1.0,1.0,1.0,85.0
2023-05-12 17:26:40.883,-1.228,-0.151,-0.295,0.362,-1.228,-0.301,-0.430,0.225,-0.838,-0.067,-0.147,0.286,-0.435,-0.074,-0.097,0.047,-0.522,-0.260,-0.229,-0.189,800.0,810.0,820.0,830.0,840.0,58.0,8.0,0.1,0.0,0.9,5.2,-3.7,1.8,1,1.0,1.0,1.0,1.0,85.0
2023-05-12 17:26:41.093,-1.211,-0.235,-0.302,0.399,-1.185,-0.230,-0.398,0.248,-0.680,-0.123,-0.032,0.304,-0.474,-0.093,-0.054,0.068,-0.524,-0.228,-0.213,-0.170,800.0,810.0,820.0,830.0,840.0,58.0,8.0,0.1,0.0,0.9,5.2,-3.7,1.8,1,1.0,1.0,1.0,1.0,85.0
2023-05-12 17:26:41.198,-1.192,-0.323,-0.376,0.440,-1.098,-0.122,-0.370,0.261,-0.634,-0.109,0.025,0.425,-0.484,-0.098,-0.021,0.086,-0.529,-0.180,-0.200,-0.157,800.0,810.0,820.0,830.0,840.0,58.0,8.0,0.1,0.0,0.9,5.2,-3.7,1.8,1,1.0,1.0,1.0,1.0,85.0
2023-05-12 17:26:41.449,-1.189,-0.301,-0.421,0.440,-1.063,-0.101,-0.355,0.253,-0.612,-0.101,0.051,0.488,-0.487,-0.098,0.008,0.100,-0.543,-0.094,-0.200,-0.164,800.0,810.0,820.0,830.0,840.0,58.0,8.0,0.1,0.0,0.9,5.2,-3.7,1.8,1,1.0,1.0,1.0,1.0,85.0
2023-05-12 17:26:41.489,-1.200,-0.217,-0.456,0.426,-1.040,-0.095,-0.317,0.248,-0.612,-0.071,0.051,0.488,-0.495,-0.101,0.046,0.117,-0.543,-0.078,-0.205,-0.180,800.0,810.0,820.0,830.0,840.0,58.0,8.0,0.1,0.0,0.9,5.2,-3.7,1.8,1,1.0,1.0,1.0,1.0,85.0
2023-05-12 17:26:41.582,-1.210,-0.193,-0.432,0.418,-1.015,-0.091,-0.178,0.273,-0.612,-0.029,0.051,0.488,-0.511,-0.105,0.062,0.128,-0.530,-0.087,-0.202,-0.218,800.0,810.0,820.0,830.0,840.0,58.0,8.0,0.1,0.0,0.9,5.2,-3.7,1.8,1,1.0,1.0,1.0,1.0,85.0
2023-05-12 17:26:41.820,-1.222,-0.180,-0.397,0.404,-1.000,-0.083,-0.117,0.286,-0.614,0.012,0.051,0.486,-0.557,-0.102,0.092,0.147,-0.527,-0.097,-0.197,-0.228,800.0,810.0,820.0,830.0,840.0,58.0,8.0,0.1,0.0,0.9,5.2,-3.7,1.8,1,1.0,1.0,1.0,1.0,85.0
2023-05-12 17:26:41.874,-1.222,-0.123,-0.337,0.349,-0.961,-0.056,-0.055,0.264,-0.600,0.004,0.041,0.477,-0.564,-0.086,0.099,0.158,-0.531,-0.104,-0.190,-0.224,800.0,810.0,820.0,830.0,840.0,58.0,8.0,0.1,0.0,0.9,5.2,-3.7,1.8,1,1.0,1.0,1.0,1.0,85.0
2023-05-12 17:26:42.103,-1.206,-0.083,-0.318,0.312,-0.946,-0.035,-0.035,0.242,-0.578,0.079,0.039,0.465,-0.550,-0.063,0.101,0.174,-0.542,-0.090,-0.173,-0.185,800.0,810.0,820.0,830.0,840.0,58.0,8.0,0.1,0.0,0.9,5.2,-3.7,1.8,1,1.0,1.0,1.0,1.0,85.0
2023-05-12 17:26:42.214,-1.199,-0.024,-0.275,0.267,-0.942,-0.010,-0.014,0.225,-0.572,0.088,0.039,0.460,-0.502,-0.021,0.110,0.214,-0.538,-0.066,-0.163,-0.161,800.0,810.0,820.0,830.0,840.0,58.0,8.0,0.1,0.0,0.9,5.2,-3.7,1.8,1,1.0,1.0,1.0,1.0,85.0
2023-05-12 17:26:42.295,-1.206,-0.008,-0.260,0.263,-0.960,0.019,0.013,0.205,-0.560,0.088,0.060,0.451,-0.492,-0.010,0.117,0.232,-0.524,-0.009,-0.150,-0.126,800.0,810.0,820.0,830.0,840.0,58.0,8.0,0.1,0.0,0.9,5.2,-3.7,1.8,1,1.0,1.0,1.0,1.0,85.0
2023-05-12 17:26:42.504,-1.205,0.003,-0.249,0.256,-0.978,0.007,0.016,0.190,-0.553,0.086,0.268,0.455,-0.495,-0.010,0.118,0.254,-0.525,0.006,-0.154,-0.120,800.0,810.0,820.0,830.0,840.0,58.0,8.0,0.1,0.0,0.9,5.2,-3.7,1.8,1,1.0,1.0,1.0,1.0,85.0
2023-05-12 17:26:42.665,-1.188,0.003,-0.235,0.213,-1.023,-0.050,0.039,0.174,-0.558,0.086,0.283,0.464,-0.496,-0.015,0.108,0.262,-0.532,0.006,-0.165,-0.117,800.0,810.0,820.0,830.0,840.0,58.0,8.0,0.1,0.0,0.9,5.2,-3.7,1.8,1,1.0,1.0,1.0,1.0,85.0
2023-05-12 17:26:42.812,-1.182,-0.016,-0.230,0.193,-1.043,-0.074,0.056,0.189,-0.651,0.076,0.252,0.434,-0.496,-0.021,0.094,0.271,-0.548,-0.037,-0.192,-0.112,800.0,810.0,820.0,830.0,840.0,58.0,8.0,0.1,0.0,0.9,5.2,-3.7,1.8,1,1.0,1.0,1.0,1.0,85.0
2023-05-12 17:26:42.909,-1.171,-0.074,-0.218,0.176,-1.055,-0.085,0.066,0.214,-0.705,0.067,0.271,0.401,-0.507,-0.028,0.068,0.290,-0.562,-0.063,-0.201,-0.109,800.0,810.0,820.0,830.0,840.0,58.0,8.0,0.1,0.0,0.9,5.2,-3.7,1.8,1,1.0,1.0,1.0,1.0,85.0
2023-05-12 17:26:43.012,-1.164,-0.079,-0.211,0.167,-1.037,-0.050,0.045,0.253,-0.704,0.097,0.316,0.384,-0.516,-0.030,0.060,0.290,-0.620,-0.071,-0.202,-0.095,800.0,810.0,820.0,830.0,840.0,58.0,8.0,0.1,0.0,0.9,5.2,-3.7,1.8,1,1.0,1.0,1.0,1.0,85.0
2023-05-12 17:26:43.270,-1.160,-0.058,-0.205,0.169,-1.016,-0.016,0.020,0.261,-0.700,0.165,0.324,0.435,-0.518,-0.036,0.032,0.274,-0.655,-0.054,-0.191,-0.084,800.0,810.0,820.0,830.0,840.0,58.0,8.0,0.1,0.0,0.9,5.2,-3.7,1.8,1,1.0,1.0,1.0,1.0,85.0
2023-05-12 17:26:43.349,-1.167,-0.023,-0.159,0.229,-0.993,0.024,-0.029,0.278,-0.700,0.183,0.324,0.442,-0.510,-0.041,0.017,0.273,-0.680,-0.034,-0.177,-0.077,800.0,810.0,820.0,830.0,840.0,58.0,8.0,0.1,0.0,0.9,5.2,-3.7,1.8,1,1.0,1.0,1.0,1.0,85.0
2023-05-12 17:26:43.508,-1.184,-0.045,-0.121,0.262,-0.995,0.035,-0.052,0.285,-0.694,0.236,0.324,0.412,-0.503,-0.045,0.008,0.280,-0.678,-0.008,-0.167,-0.082,800.0,810.0,820.0,830.0,840.0,58.0,8.0,0.1,0.0,0.9,5.2,-3.7,1.8,1,1.0,1.0,1.0,1.0,85.0
2023-05-12 17:26:43.625,-1.232,-0.126,-0.076,0.292,-0.998,0.047,-0.083,0.282,-0.684,0.270,0.324,0.407,-0.498,-0.039,0.003,0.307,-0.667,-0.007,-0.168,-0.093,800.0,810.0,820.0,830.0,840.0,58.0,8.0,0.1,0.0,0.9,5.2,-3.7,1.8,1,1.0,1.0,1.0,1.0,85.0
2023-05-12 17:26:43.688,-1.247,-0.160,-0.075,0.294,-1.002,0.069,-0.170,0.252,-0.676,0.298,0.324,0.401,-0.487,-0.027,-0.005,0.319,-0.639,-0.016,-0.170,-0.128,800.0,810.0,820.0,830.0,840.0,58.0,8.0,0.1,0.0,0.9,5.2,-3.7,1.8,1,1.0,1.0,1.0,1.0,85.0
2023-05-12 17:26:43.940,-1.255,-0.176,-0.070,0.304,-0.995,0.074,-0.205,0.241,-0.559,0.334,0.347,0.382,-0.442,-0.000,-0.018,0.334,-0.619,-0.014,-0.168,-0.144,800.0,810.0,820.0,830.0,840.0,58.0,8.0,0.1,0.0,0.9,5.2,-3.7,1.8,1,1.0,1.0,1.0,1.0,85.0
2023-05-12 17:26:44.057,-1.295,-0.157,-0.053,0.283,-0.955,0.070,-0.257,0.263,-0.508,0.334,0.343,0.382,-0.425,0.010,-0.020,0.342,-0.596,-0.009,-0.162,-0.152,800.0,810.0,820.0,830.0,840.0,58.0,8.0,0.1,0.0,0.9,5.2,-3.7,1.8,1,1.0,1.0,1.0,1.0,85.0
2023-05-12 17:26:44.231,-1.318,-0.115,-0.045,0.287,-0.934,0.059,-0.290,0.276,-0.515,0.337,0.199,0.382,-0.417,0.020,-0.025,0.347,-0.569,-0.007,-0.139,-0.159,800.0,810.0,820.0,830.0,840.0,58.0,8.0,0.1,0.0,0.9,5.2,-3.7,1.8,1,1.0,1.0,1.0,1.0,85.0
2023-05-12 17:26:44.341,-1.350,0.008,-0.037,0.317,-0.919,0.045,-0.309,0.285,-0.487,0.336,0.178,0.382,-0.407,0.041,-0.039,0.346,-0.570,-0.005,-0.127,-0.155,800.0,810.0,820.0,830.0,840.0,58.0,8.0,0.1,0.0,0.9,5.2,-3.7,1.8,1,1.0,1.0,1.0,1.0,85.0
2023-05-12 17:26:44.496,-1.372,0.052,-0.036,0.334,-0.909,0.018,-0.263,0.280,-0.466,0.336,0.183,0.382,-0.396,0.061,-0.038,0.348,-0.586,0.025,-0.112,-0.129,800.0,810.0,820.0,830.0,840.0,58.0,8.0,0.1,0.0,0.9,5.2,-3.7,1.8,1,1.0,1.0,1.0,1.0,85.0
2023-05-12 17:26:44.645,-1.394,0.075,-0.034,0.353,-0.915,0.000,-0.238,0.260,-0.466,0.337,0.244,0.343,-0.374,0.130,-0.032,0.371,-0.592,0.050,-0.115,-0.118,800.0,810.0,820.0,830.0,840.0,58.0,8.0,0.1,0.0,0.9,5.2,-3.7,1.8,1,1.0,1.0,1.0,1.0,85.0
2023-05-12 17:26:44.788,-1.382,0.084,-0.020,0.372,-0.927,-0.019,-0.243,0.162,-0.466,0.337,0.246,0.304,-0.374,0.169,-0.034,0.387,-0.594,0.070,-0.124,-0.115,800.0,810.0,820.0,830.0,840.0,58.0,8.0,0.1,0.0,0.9,5.2,-3.7,1.8,1,1.0,1.0,1.0,1.0,85.0
2023-05-12 17:26:44.926,-1.362,0.087,-0.019,0.359,-0.920,-0.015,-0.243,0.076,-0.466,0.359,0.254,0.243,-0.382,0.202,-0.036,0.401,-0.589,0.088,-0.142,-0.144,800.0,810.0,820.0,830.0,840.0,58.0,8.0,0.1,0.0,0.9,5.2,-3.7,1.8,1,1.0,1.0,1.0,1.0,85.0
2023-05-12 17:26:45.084,-1.319,0.107,-0.025,0.348,-0.906,-0.011,-0.223,-0.017,-0.464,0.361,0.259,0.243,-0.417,0.236,-0.023,0.407,-0.590,0.091,-0.142,-0.176,800.0,810.0,820.0,830.0,840.0,58.0,8.0,0.1,0.0,0.9,5.2,-3.7,1.8,1,1.0,1.0,1.0,1.0,85.0
2023-05-12 17:26:45.190,-1.307,0.121,-0.027,0.348,-0.874,-0.032,-0.158,-0.017,-0.463,0.358,0.264,0.243,-0.441,0.236,-0.003,0.407,-0.624,0.102,-0.140,-0.176,800.0,810.0,820.0,830.0,840.0,58.0,8.0,0.1,0.0,0.9,5.2,-3.7,1.8,1,1.0,1.0,1.0,1.0,85.0
2023-05-12 17:26:45.328,-1.302,0.143,-0.025,0.348,-0.866,-0.053,-0.127,-0.017,-0.480,0.361,0.274,0.243,-0.518,0.223,0.046,0.407,-0.657,0.110,-0.141,-0.176,800.0,810.0,820.0,830.0,840.0,58.0,8.0,0.1,0.0,0.9,5.2,-3.7,1.8,1,1.0,1.0,1.0,1.0,85.0
2023-05-12 17:26:45.443,-1.305,0.182,-0.001,0.348,-0.871,-0.086,-0.068,-0.017,-0.478,0.352,0.273,0.243,-0.566,0.219,0.056,0.407,-0.692,0.114,-0.145,-0.176,800.0,810.0,820.0,830.0,840.0,58.0,8.0,0.1,0.0,0.9,5.2,-3.7,1.8,1,1.0,1.0,1.0,1.0,85.0
2023-05-12 17:26:45.666,-1.311,0.195,0.031,0.348,-0.873,-0.091,-0.037,-0.017,-0.505,0.336,0.229,0.243,-0.605,0.218,0.052,0.407,-0.716,0.109,-0.164,-0.176,800.0,810.0,820.0,830.0,840.0,58.0,8.0,0.1,0.0,0.9,5.2,-3.7,1.8,1,1.0,1.0,1.0,1.0,85.0
2023-05-12 17:26:45.774,-1.334,0.198,0.104,0.348,-0.870,-0.086,-0.010,-0.017,-0.547,0.326,0.218,0.243,-0.639,0.222,0.032,0.407,-0.695,0.105,-0.176,-0.176,800.0,810.0,820.0,830.0,840.0,58.0,8.0,0.1,0.0,0.9,5.2,-3.7,1.8,1,1.0,1.0,1.0,1.0,85.0
2023-05-12 17:26:45.852,-1.340,0.178,0.134,0.348,-0.867,-0.055,0.005,-0.017,-0.547,0.322,0.221,0.243,-0.646,0.226,0.030,0.407,-0.634,0.090,-0.203,-0.176,800.0,810.0,820.0,830.0,840.0,58.0,8.0,0.1,0.0,0.9,5.2,-3.7,1.8,1,1.0,1.0,1.0,1.0,85.0
2023-05-12 17:26:46.087,-1.334,0.158,0.167,0.348,-0.876,-0.027,0.004,-0.017,-0.558,0.304,0.238,0.243,-0.666,0.234,0.043,0.407,-0.609,0.071,-0.220,-0.176,800.0,810.0,820.0,830.0,840.0,58.0,8.0,0.1,0.0,0.9,5.2,-3.7,1.8,1,1.0,1.0,1.0,1.0,85.0
2023-05-12 17:26:46.148,-1.337,0.191,0.290,0.348,-0.896,0.055,0.083,-0.017,-0.562,0.305,0.207,0.243,-0.674,0.235,0.059,0.407,-0.591,0.041,-0.236,-0.176,800.0,810.0,820.0,830.0,840.0,58.0,8.0,0.1,0.0,0.9,5.2,-3.7,1.8,1,1.0,1.0,1.0,1.0,85.0
2023-05-12 17:26:46.345,-1.362,0.237,0.358,0.348,-0.911,0.086,0.141,-0.017,-0.644,0.296,0.198,0.496,-0.676,0.231,0.075,0.407,-0.576,-0.020,-0.259,-0.176,800.0,810.0,820.0,830.0,840.0,58.0,8.0,0.1,0.0,0.9,5.2,-3.7,1.8,1,1.0,1.0,1.0,1.0,85.0
2023-05-12 17:26:46.485,-1.421,0.311,0.443,0.613,-0.931,0.095,0.183,0.121,-0.654,0.282,0.198,0.564,-0.667,0.217,0.087,0.484,-0.579,-0.034,-0.273,-0.472,800.0,810.0,820.0,830.0,840.0,58.0,8.0,0.1,0.0,0.9,5.2,-3.7,1.8,1,1.0,1.0,1.0,1.0,85.0
2023-05-12 17:26:46.589,-1.439,0.324,0.465,0.573,-0.988,0.076,0.219,0.168,-0.654,0.273,0.198,0.642,-0.661,0.213,0.075,0.447,-0.591,-0.036,-0.294,-0.421,800.0,810.0,820.0,830.0,840.0,58.0,8.0,0.1,0.0,0.9,5.2,-3.7,1.8,1,1.0,1.0,1.0,1.0,85.0
2023-05-12 17:26:46.770,-1.445,0.326,0.479,0.545,-1.018,0.069,0.223,0.163,-0.642,0.257,0.212,0.689,-0.645,0.226,0.031,0.410,-0.590,-0.043,-0.306,-0.398,800.0,810.0,820.0,830.0,840.0,58.0,8.0,0.1,0.0,0.9,5.2,-3.7,1.8,1,1.0,1.0,1.0,1.0,85.0
2023-05-12 17:26:46.908,-1.432,0.309,0.488,0.506,-1.054,0.077,0.208,0.147,-0.590,0.257,0.204,0.689,-0.633,0.242,0.011,0.401,-0.589,-0.058,-0.328,-0.381,800.0,810.0,820.0,830.0,840.0,58.0,8.0,0.1,0.0,0.9,5.2,-3.7,1.8,1,1.0,1.0,1.0,1.0,85.0
2023-05-12 17:26:47.107,-1.398,0.294,0.479,0.476,-1.069,0.087,0.195,0.141,-0.553,0.254,0.188,0.689,-0.620,0.260,-0.000,0.391,-0.604,-0.080,-0.377,-0.371,800.0,810.0,820.0,830.0,840.0,58.0,8.0,0.1,0.0,0.9,5.2,-3.7,1.8,1,1.0,1.0,1.0,1.0,85.0
2023-05-12 17:26:47.217,-1.269,0.305,0.495,0.435,-1.099,0.102,0.187,0.140,-0.561,0.263,0.203,0.689,-0.606,0.285,0.015,0.387,-0.624,-0.070,-0.385,-0.372,800.0,810.0,820.0,830.0,840.0,58.0,8.0,0.1,0.0,0.9,5.2,-3.7,1.8,1,1.0,1.0,1.0,1.0,85.0
2023-05-12 17:26:47.265,-1.205,0.369,0.569,0.443,-1.181,0.184,0.274,0.180,-0.562,0.306,0.248,0.689,-0.607,0.289,0.042,0.405,-0.668,-0.025,-0.375,-0.357,800.0,810.0,820.0,830.0,840.0,58.0,8.0,0.1,0.0,0.9,5.2,-3.7,1.8,1,1.0,1.0,1.0,1.0,85.0
2023-05-12 17:26:47.479,-1.167,0.463,0.667,0.464,-1.195,0.239,0.365,0.215,-0.568,0.456,0.385,0.738,-0.608,0.278,0.088,0.447,-0.682,-0.009,-0.373,-0.337,800.0,810.0,820.0,830.0,840.0,58.0,8.0,0.1,0.0,0.9,5.2,-3.7,1.8,1,1.0,1.0,1.0,1.0,85.0
2023-05-12 17:26:47.579,-1.142,0.603,0.819,0.457,-1.173,0.277,0.479,0.296,-0.573,0.500,0.407,0.758,-0.602,0.264,0.095,0.456,-0.695,0.002,-0.375,-0.319,800.0,810.0,820.0,830.0,840.0,58.0,8.0,0.1,0.0,0.9,5.2,-3.7,1.8,1,1.0,1.0,1.0,1.0,85.0
2023-05-12 17:26:47.780,-1.132,0.621,0.856,0.479,-1.172,0.260,0.489,0.334,-0.573,0.489,0.412,0.784,-0.589,0.247,0.095,0.452,-0.729,0.033,-0.381,-0.292,800.0,810.0,820.0,830.0,840.0,58.0,8.0,0.1,0.0,0.9,5.2,-3.7,1.8,1,1.0,1.0,1.0,1.0,85.0
2023-05-12 17:26:47.844,-1.121,0.599,0.894,0.556,-1.181,0.241,0.486,0.359,-0.573,0.486,0.415,0.751,-0.551,0.226,0.097,0.444,-0.744,0.055,-0.373,-0.289,800.0,810.0,820.0,830.0,840.0,58.0,8.0,0.1,0.0,0.9,5.2,-3.7,1.8,1,1.0,1.0,1.0,1.0,85.0
2023-05-12 17:26:47.991,-1.127,0.588,0.902,0.577,-1.200,0.226,0.475,0.384,-0.573,0.484,0.415,0.735,-0.537,0.223,0.095,0.446,-0.765,0.088,-0.331,-0.269,800.0,810.0,820.0,830.0,840.0,58.0,8.0,0.1,0.0,0.9,5.2,-3.7,1.8,1,1.0,1.0,1.0,1.0,85.0
2023-05-12 17:26:48.234,-1.141,0.581,0.903,0.582,-1.195,0.216,0.470,0.398,-0.523,0.466,0.415,0.731,-0.523,0.220,0.095,0.438,-0.776,0.093,-0.311,-0.249,800.0,810.0,820.0,830.0,840.0,58.0,8.0,0.1,0.0,0.9,5.2,-3.7,1.8,1,1.0,1.0,1.0,1.0,85.0
2023-05-12 17:26:48.324,-1.181,0.575,0.898,0.562,-1.137,0.195,0.472,0.426,-0.508,0.458,0.415,0.709,-0.518,0.217,0.097,0.427,-0.788,0.089,-0.294,-0.232,800.0,810.0,820.0,830.0,840.0,58.0,8.0,0.1,0.0,0.9,5.2,-3.7,1.8,1,1.0,1.0,1.0,1.0,85.0
2023-05-12 17:26:48.508,-1.197,0.596,0.913,0.556,-1.093,0.200,0.485,0.432,-0.490,0.508,0.542,0.706,-0.512,0.216,0.099,0.414,-0.786,0.073,-0.252,-0.206,800.0,810.0,820.0,830.0,840.0,58.0,8.0,0.1,0.0,0.9,5.2,-3.7,1.8,1,1.0,1.0,1.0,1.0,85.0
2023-05-12 17:26:48.589,-1.221,0.768,1.025,0.596,-1.046,0.239,0.524,0.436,-0.515,0.535,0.672,0.706,-0.503,0.233,0.102,0.398,-0.770,0.068,-0.234,-0.182,800.0,810.0,820.0,830.0,840.0,58.0,8.0,0.1,0.0,0.9,5.2,-3.7,1.8,1,1.0,1.0,1.0,1.0,85.0
2023-05-12 17:26:48.733,-1.225,0.871,1.094,0.627,-0.971,0.386,0.672,0.447,-0.526,0.537,0.698,0.706,-0.502,0.246,0.098,0.388,-0.756,0.050,-0.222,-0.120,800.0,810.0,820.0,830.0,840.0,58.0,8.0,0.1,0.0,0.9,5.2,-3.7,1.8,1,1.0,1.0,1.0,1.0,85.0
2023-05-12 17:26:48.906,-1.226,0.939,1.136,0.643,-0.959,0.428,0.718,0.441,-0.536,0.529,0.698,0.680,-0.499,0.261,0.055,0.331,-0.759,0.034,-0.209,-0.106,800.0,810.0,820.0,830.0,840.0,58.0,8.0,0.1,0.0,0.9,5.2,-3.7,1.8,1,1.0,1.0,1.0,1.0,85.0
2023-05-12 17:26:48.987,-1.206,0.959,1.126,0.613,-0.987,0.419,0.698,0.393,-0.536,0.529,0.698,0.670,-0.500,0.263,0.028,0.296,-0.760,0.022,-0.178,-0.105,800.0,810.0,820.0,830.0,840.0,58.0,8.0,0.1,0.0,0.9,5.2,-3.7,1.8,1,1.0,1.0,1.0,1.0,85.0
2023-05-12 17:26:49.186,-1.200,0.943,1.097,0.574,-1.003,0.402,0.667,0.357,-0.536,0.497,0.686,0.621,-0.508,0.264,0.009,0.270,-0.743,0.017,-0.092,-0.081,800.0,810.0,820.0,830.0,840.0,58.0,8.0,0.1,0.0,0.9,5.2,-3.7,1.8,1,1.0,1.0,1.0,1.0,85.0
2023-05-12 17:26:49.316,-1.197,0.924,1.041,0.469,-1.002,0.390,0.645,0.323,-0.537,0.438,0.663,0.562,-0.546,0.255,-0.016,0.224,-0.730,0.015,-0.062,-0.052,800.0,810.0,820.0,830.0,840.0,58.0,8.0,0.1,0.0,0.9,5.2,-3.7,1.8,1,1.0,1.0,1.0,1.0,85.0
2023-05-12 17:26:49.413,-1.188,0.918,1.017,0.413,-0.960,0.371,0.622,0.269,-0.547,0.356,0.632,0.449,-0.566,0.242,-0.021,0.197,-0.699,-0.001,-0.052,-0.013,800.0,810.0,820.0,830.0,840.0,58.0,8.0,0.1,0.0,0.9,5.2,-3.7,1.8,1,1.0,1.0,1.0,1.0,85.0
2023-05-12 17:26:49.618,-1.176,0.915,1.000,0.380,-0.938,0.370,0.619,0.244,-0.561,0.256,0.632,0.297,-0.571,0.207,-0.008,0.162,-0.680,-0.007,-0.064,-0.011,800.0,810.0,820.0,830.0,840.0,58.0,8.0,0.1,0.0,0.9,5.2,-3.7,1.8,1,1.0,1.0,1.0,1.0,85.0
2023-05-12 17:26:49.742,-1.150,0.913,0.989,0.395,-0.926,0.386,0.617,0.179,-0.561,0.255,0.632,0.215,-0.559,0.195,0.001,0.158,-0.658,-0.007,-0.077,-0.014,800.0,810.0,820.0,830.0,840.0,58.0,8.0,0.1,0.0,0.9,5.2,-3.7,1.8,1,1.0,1.0,1.0,1.0,85.0
2023-05-12 17:26:49.929,-1.136,0.912,0.986,0.426,-0.936,0.392,0.613,0.162,-0.603,0.255,0.632,0.334,-0.551,0.194,0.010,0.161,-0.618,-0.002,-0.085,-0.018,800.0,810.0,820.0,830.0,840.0,58.0,8.0,0.1,0.0,0.9,5.2,-3.7,1.8,1,1.0,1.0,1.0,1.0,85.0
2023-05-12 17:26:50.019,-1.099,0.864,0.928,0.486,-0.953,0.390,0.604,0.169,-0.627,0.255,0.632,0.529,-0.552,0.212,0.040,0.172,-0.615,-0.007,-0.087,-0.015,800.0,810.0,820.0,830.0,840.0,58.0,8.0,0.1,0.0,0.9,5.2,-3.7,1.8,1,1.0,1.0,1.0,1.0,85.0
2023-05-12 17:26:50.127,-1.093,0.779,0.835,0.490,-1.003,0.294,0.500,0.220,-0.650,0.237,0.632,0.641,-0.553,0.215,0.066,0.172,-0.630,-0.030,-0.091,-0.014,800.0,810.0,820.0,830.0,840.0,58.0,8.0,0.1,0.0,0.9,5.2,-3.7,1.8,1,1.0,1.0,1.0,1.0,85.0
2023-05-12 17:26:50.319,-1.105,0.632,0.674,0.477,-1.025,0.183,0.369,0.242,-0.551,0.100,0.326,0.669,-0.521,0.193,0.117,0.156,-0.631,-0.035,-0.092,-0.011,800.0,810.0,820.0,830.0,840.0,58.0,8.0,0.1,0.0,0.9,5.2,-3.7,1.8,1,1.0,1.0,1.0,1.0,85.0
2023-05-12 17:26:50.423,-1.174,0.162,0.174,0.441,-1.028,-0.064,0.032,0.256,-0.528,0.065,0.211,0.669,-0.493,0.177,0.132,0.141,-0.624,-0.031,-0.098,-0.001,800.0,810.0,820.0,830.0,840.0,58.0,8.0,0.1,0.0,0.9,5.2,-3.7,1.8,1,1.0,1.0,1.0,1.0,85.0
2023-05-12 17:26:50.639,-1.205,-0.065,-0.045,0.433,-1.010,-0.123,-0.045,0.254,-0.528,0.060,0.208,0.669,-0.467,0.163,0.139,0.119,-0.599,-0.011,-0.132,0.024,800.0,810.0,820.0,830.0,840.0,58.0,8.0,0.1,0.0,0.9,5.2,-3.7,1.8,1,1.0,1.0,1.0,1.0,85.0
2023-05-12 17:26:50.740,-1.234,-0.333,-0.256,0.425,-0.989,-0.147,-0.062,0.251,-0.527,0.069,0.209,0.669,-0.435,0.138,0.146,0.057,-0.581,-0.005,-0.156,0.030,800.0,810.0,820.0,830.0,840.0,58.0,8.0,0.1,0.0,0.9,5.2,-3.7,1.8,1,1.0,1.0,1.0,1.0,85.0
2023-05-12 17:26:50.831,-1.248,-0.374,-0.302,0.420,-0.967,-0.172,-0.091,0.241,-0.515,0.059,0.209,0.674,-0.424,0.127,0.151,0.039,-0.556,-0.017,-0.191,0.036,800.0,810.0,820.0,830.0,840.0,58.0,8.0,0.1,0.0,0.9,5.2,-3.7,1.8,1,1.0,1.0,1.0,1.0,85.0
2023-05-12 17:26:51.069,-1.256,-0.380,-0.332,0.413,-0.972,-0.180,-0.112,0.237,-0.459,0.039,0.208,0.712,-0.406,0.108,0.155,0.051,-0.560,-0.037,-0.189,0.045,800.0,810.0,820.0,830.0,840.0,58.0,8.0,0.1,0.0,0.9,5.2,-3.7,1.8,1,1.0,1.0,1.0,1.0,85.0
2023-05-12 17:26:51.169,-1.242,-0.336,-0.346,0.403,-0.982,-0.203,-0.125,0.257,-0.426,0.035,0.204,0.732,-0.403,0.105,0.152,0.069,-0.572,-0.064,-0.175,0.054,800.0,810.0,820.0,830.0,840.0,58.0,8.0,0.1,0.0,0.9,5.2,-3.7,1.8,1,1.0,1.0,1.0,1.0,85.0
2023-05-12 17:26:51.387,-1.223,-0.308,-0.335,0.405,-0.979,-0.225,-0.124,0.280,-0.394,0.033,0.143,0.743,-0.403,0.104,0.145,0.085,-0.614,-0.095,-0.165,0.062,800.0,810.0,820.0,830.0,840.0,58.0,8.0,0.1,0.0,0.9,5.2,-3.7,1.8,1,1.0,1.0,1.0,1.0,85.0
2023-05-12 17:26:51.437,-1.193,-0.241,-0.266,0.364,-0.977,-0.254,-0.127,0.287,-0.393,0.034,0.129,0.743,-0.404,0.080,0.122,0.087,-0.631,-0.085,-0.177,0.072,800.0,810.0,820.0,830.0,840.0,58.0,8.0,0.1,0.0,0.9,5.2,-3.7,1.8,1,1.0,1.0,1.0,1.0,85.0
2023-05-12 17:26:51.576,-1.202,-0.153,-0.169,0.316,-0.984,-0.317,-0.150,0.266,-0.393,0.019,0.123,0.743,-0.398,0.054,0.107,0.084,-0.632,-0.041,-0.214,0.086,800.0,810.0,820.0,830.0,840.0,58.0,8.0,0.1,0.0,0.9,5.2,-3.7,1.8,1,1.0,1.0,1.0,1.0,85.0
2023-05-12 17:26:51.775,-1.225,-0.007,0.023,0.254,-0.991,-0.342,-0.177,0.229,-0.411,-0.051,-0.043,0.668,-0.387,0.026,0.063,0.068,-0.626,-0.027,-0.231,0.087,800.0,810.0,820.0,830.0,840.0,58.0,8.0,0.1,0.0,0.9,5.2,-3.7,1.8,1,1.0,1.0,1.0,1.0,85.0
2023-05-12 17:26:51.847,-1.249,0.390,0.466,0.088,-0.994,-0.351,-0.247,0.137,-0.437,-0.071,-0.010,0.557,-0.389,0.038,0.043,0.057,-0.625,-0.026,-0.245,0.084,800.0,810.0,820.0,830.0,840.0,58.0,8.0,0.1,0.0,0.9,5.2,-3.7,1.8,1,1.0,1.0,1.0,1.0,85.0
2023-05-12 17:26:52.049,-1.235,0.539,0.600,0.037,-0.990,-0.347,-0.257,0.125,-0.465,-0.002,0.059,0.348,-0.396,0.060,0.031,0.054,-0.636,-0.058,-0.275,0.079,800.0,810.0,820.0,830.0,840.0,58.0,8.0,0.1,0.0,0.9,5.2,-3.7,1.8,1,1.0,1.0,1.0,1.0,85.0
2023-05-12 17:26:52.194,-1.200,0.685,0.712,0.073,-0.988,-0.332,-0.239,0.146,-0.452,0.101,0.096,0.322,-0.408,0.118,0.033,0.092,-0.647,-0.086,-0.295,0.073,800.0,810.0,820.0,830.0,840.0,58.0,8.0,0.1,0.0,0.9,5.2,-3.7,1.8,1,1.0,1.0,1.0,1.0,85.0
2023-05-12 17:26:52.252,-1.186,0.706,0.726,0.143,-1.008,-0.250,-0.166,0.217,-0.433,0.241,0.101,0.318,-0.408,0.155,0.033,0.121,-0.685,-0.147,-0.320,0.044,800.0,810.0,820.0,830.0,840.0,58.0,8.0,0.1,0.0,0.9,5.2,-3.7,1.8,1,1.0,1.0,1.0,1.0,85.0
2023-05-12 17:26:52.498,-1.172,0.715,0.732,0.223,-1.024,-0.206,-0.131,0.253,-0.432,0.320,0.101,0.316,-0.409,0.219,0.018,0.147,-0.696,-0.165,-0.305,0.021,800.0,810.0,820.0,830.0,840.0,58.0,8.0,0.1,0.0,0.9,5.2,-3.7,1.8,1,1.0,1.0,1.0,1.0,85.0
2023-05-12 17:26:52.574,-1.187,0.720,0.738,0.223,-1.064,-0.140,-0.122,0.253,-0.432,0.329,0.106,0.316,-0.414,0.237,0.012,0.147,-0.687,-0.166,-0.284,0.021,800.0,810.0,820.0,830.0,840.0,58.0,8.0,0.1,0.0,0.9,5.2,-3.7,1.8,1,1.0,1.0,1.0,1.0,85.0
2023-05-12 17:26:52.749,-1.213,0.722,0.736,0.223,-1.091,-0.101,-0.145,0.253,-0.442,0.345,0.167,0.316,-0.419,0.248,0.019,0.147,-0.627,-0.150,-0.270,0.021,800.0,810.0,820.0,830.0,840.0,58.0,8.0,0.1,0.0,0.9,5.2,-3.7,1.8,1,1.0,1.0,1.0,1.0,85.0
2023-05-12 17:26:52.857,-1.276,0.731,0.731,0.223,-1.117,-0.060,-0.165,0.253,-0.476,0.361,0.170,0.316,-0.413,0.264,0.056,0.147,-0.599,-0.148,-0.272,0.021,800.0,810.0,820.0,830.0,840.0,58.0,8.0,0.1,0.0,0.9,5.2,-3.7,1.8,1,1.0,1.0,1.0,1.0,85.0
2023-05-12 17:26:53.035,-1.313,0.732,0.727,0.223,-1.137,-0.010,-0.173,0.253,-0.527,0.385,0.170,0.316,-0.400,0.268,0.066,0.147,-0.551,-0.169,-0.258,0.021,800.0,810.0,820.0,830.0,840.0,58.0,8.0,0.1,0.0,0.9,5.2,-3.7,1.8,1,1.0,1.0,1.0,1.0,85.0
2023-05-12 17:26:53.182,-1.344,0.724,0.717,0.223,-1.134,-0.002,-0.169,0.253,-0.509,0.390,0.177,0.481,-0.381,0.256,0.062,0.048,-0.526,-0.189,-0.245,0.021,800.0,810.0,820.0,830.0,840.0,58.0,8.0,0.1,0.0,0.9,5.2,-3.7,1.8,1,1.0,1.0,1.0,1.0,85.0
2023-05-12 17:26:53.278,-1.389,0.653,0.614,0.802,-1.127,-0.000,-0.144,0.863,-0.504,0.392,0.214,0.601,-0.382,0.242,0.060,0.048,-0.501,-0.204,-0.225,-0.198,800.0,810.0,820.0,830.0,840.0,58.0,8.0,0.1,0.0,0.9,5.2,-3.7,1.8,1,1.0,1.0,1.0,1.0,85.0
2023-05-12 17:26:53.445,-1.415,0.569,0.482,0.760,-1.135,0.004,-0.133,0.843,-0.511,0.392,0.238,0.690,-0.389,0.229,0.062,0.052,-0.470,-0.189,-0.164,-0.137,800.0,810.0,820.0,830.0,840.0,58.0,8.0,0.1,0.0,0.9,5.2,-3.7,1.8,1,1.0,1.0,1.0,1.0,85.0
2023-05-12 17:26:53.580,-1.445,0.356,0.080,0.696,-1.150,0.013,-0.136,0.824,-0.504,0.392,0.237,0.693,-0.409,0.210,0.075,0.066,-0.469,-0.168,-0.138,-0.132,800.0,810.0,820.0,830.0,840.0,58.0,8.0,0.1,0.0,0.9,5.2,-3.7,1.8,1,1.0,1.0,1.0,1.0,85.0
2023-05-12 17:26:53.706,-1.431,0.294,-0.104,0.685,-1.173,0.008,-0.180,0.781,-0.452,0.392,0.220,0.693,-0.420,0.202,0.081,0.069,-0.481,-0.125,-0.122,-0.156,800.0,810.0,820.0,830.0,840.0,58.0,8.0,0.1,0.0,0.9,5.2,-3.7,1.8,1,1.0,1.0,1.0,1.0,85.0
2023-05-12 17:26:53.853,-1.419,0.284,-0.208,0.681,-1.172,-0.014,-0.215,0.750,-0.420,0.361,0.169,0.693,-0.423,0.181,0.105,0.060,-0.487,-0.108,-0.127,-0.172,800.0,810.0,820.0,830.0,840.0,58.0,8.0,0.1,0.0,0.9,5.2,-3.7,1.8,1,1.0,1.0,1.0,1.0,85.0
2023-05-12 17:26:53.999,-1.431,0.296,-0.258,0.647,-1.158,-0.060,-0.264,0.682,-0.431,0.317,0.172,0.693,-0.410,0.176,0.127,0.055,-0.494,-0.096,-0.140,-0.184,800.0,810.0,820.0,830.0,840.0,58.0,8.0,0.1,0.0,0.9,5.2,-3.7,1.8,1,1.0,1.0,1.0,1.0,85.0
2023-05-12 17:26:54.207,-1.435,0.293,-0.222,0.618,-1.147,-0.082,-0.261,0.651,-0.442,0.245,0.194,0.695,-0.392,0.179,0.146,0.059,-0.528,-0.078,-0.171,-0.189,800.0,810.0,820.0,830.0,840.0,58.0,8.0,0.1,0.0,0.9,5.2,-3.7,1.8,1,1.0,1.0,1.0,1.0,85.0
2023-05-12 17:26:54.272,-1.379,0.264,-0.104,0.521,-1.126,-0.107,-0.246,0.618,-0.442,0.246,0.195,0.704,-0.366,0.183,0.145,0.108,-0.549,-0.068,-0.178,-0.178,800.0,810.0,820.0,830.0,840.0,58.0,8.0,0.1,0.0,0.9,5.2,-3.7,1.8,1,1.0,1.0,1.0,1.0,85.0
2023-05-12 17:26:54.384,-1.324,0.244,-0.071,0.495,-1.054,-0.128,-0.192,0.571,-0.442,0.303,0.192,0.714,-0.367,0.177,0.138,0.146,-0.588,-0.047,-0.172,-0.152,800.0,810.0,820.0,830.0,840.0,58.0,8.0,0.1,0.0,0.9,5.2,-3.7,1.8,1,1.0,1.0,1.0,1.0,85.0
2023-05-12 17:26:54.580,-1.267,0.225,-0.064,0.423,-1.024,-0.091,-0.146,0.502,-0.442,0.354,0.204,0.704,-0.399,0.165,0.154,0.230,-0.612,-0.035,-0.166,-0.130,800.0,810.0,820.0,830.0,840.0,58.0,8.0,0.1,0.0,0.9,5.2,-3.7,1.8,1,1.0,1.0,1.0,1.0,85.0
2023-05-12 17:26:54.682,-1.191,0.196,-0.083,0.310,-1.015,0.015,-0.075,0.360,-0.442,0.391,0.205,0.672,-0.419,0.167,0.173,0.259,-0.641,-0.017,-0.156,-0.120,800.0,810.0,820.0,830.0,840.0,58.0,8.0,0.1,0.0,0.9,5.2,-3.7,1.8,1,1.0,1.0,1.0,1.0,85.0
2023-05-12 17:26:54.930,-1.170,0.180,-0.094,0.294,-1.013,0.043,-0.070,0.297,-0.484,0.376,0.190,0.649,-0.419,0.175,0.190,0.278,-0.696,0.011,-0.144,-0.144,800.0,810.0,820.0,830.0,840.0,58.0,8.0,0.1,0.0,0.9,5.2,-3.7,1.8,1,1.0,1.0,1.0,1.0,85.0
2023-05-12 17:26:55.024,-1.130,0.096,-0.095,0.280,-1.007,0.049,-0.080,0.239,-0.509,0.372,0.184,0.581,-0.410,0.199,0.208,0.297,-0.716,0.014,-0.150,-0.162,800.0,810.0,820.0,830.0,840.0,58.0,8.0,0.1,0.0,0.9,5.2,-3.7,1.8,1,1.0,1.0,1.0,1.0,85.0
2023-05-12 17:26:55.090,-1.090,0.024,-0.093,0.253,-0.998,0.041,-0.100,0.130,-0.533,0.373,0.197,0.459,-0.410,0.209,0.208,0.301,-0.717,0.007,-0.174,-0.167,800.0,810.0,820.0,830.0,840.0,58.0,8.0,0.1,0.0,0.9,5.2,-3.7,1.8,1,1.0,1.0,1.0,1.0,85.0
2023-05-12 17:26:55.266,-1.070,-0.065,-0.096,0.201,-0.994,0.040,-0.101,0.095,-0.512,0.376,0.215,0.578,-0.409,0.215,0.196,0.315,-0.713,0.001,-0.183,-0.154,800.0,810.0,820.0,830.0,840.0,58.0,8.0,0.1,0.0,0.9,5.2,-3.7,1.8,1,1.0,1.0,1.0,1.0,85.0
2023-05-12 17:26:55.434,-1.073,-0.268,-0.119,0.090,-0.981,0.033,-0.096,0.134,-0.543,0.376,0.243,0.794,-0.417,0.211,0.186,0.324,-0.705,-0.004,-0.189,-0.136,800.0,810.0,820.0,830.0,840.0,58.0,8.0,0.1,0.0,0.9,5.2,-3.7,1.8,1,1.0,1.0,1.0,1.0,85.0
2023-05-12 17:26:55.616,-1.066,-0.338,-0.154,0.100,-0.976,0.028,-0.102,0.175,-0.614,0.376,0.266,0.915,-0.433,0.206,0.175,0.332,-0.626,-0.014,-0.200,-0.098,800.0,810.0,820.0,830.0,840.0,58.0,8.0,0.1,0.0,0.9,5.2,-3.7,1.8,1,1.0,1.0,1.0,1.0,85.0
2023-05-12 17:26:55.711,-1.038,-0.375,-0.314,0.197,-0.976,0.023,-0.113,0.205,-0.630,0.376,0.264,0.915,-0.464,0.201,0.158,0.331,-0.568,-0.020,-0.206,-0.083,800.0,810.0,820.0,830.0,840.0,58.0,8.0,0.1,0.0,0.9,5.2,-3.7,1.8,1,1.0,1.0,1.0,1.0,85.0
2023-05-12 17:26:55.840,-1.034,-0.342,-0.429,0.245,-1.010,0.015,-0.154,0.230,-0.642,0.376,0.264,0.915,-0.474,0.204,0.152,0.314,-0.497,-0.022,-0.223,-0.072,800.0,810.0,820.0,830.0,840.0,58.0,8.0,0.1,0.0,0.9,5.2,-3.7,1.8,1,1.0,1.0,1.0,1.0,85.0
2023-05-12 17:26:56.055,-1.045,-0.282,-0.525,0.281,-1.052,0.010,-0.192,0.245,-0.643,0.350,0.289,0.915,-0.480,0.214,0.135,0.249,-0.487,-0.013,-0.231,-0.080,800.0,810.0,820.0,830.0,840.0,58.0,8.0,0.1,0.0,0.9,5.2,-3.7,1.8,1,1.0,1.0,1.0,1.0,85.0
2023-05-12 17:26:56.162,-1.080,-0.173,-0.581,0.328,-1.118,-0.032,-0.298,0.271,-0.643,0.298,0.281,0.915,-0.473,0.216,0.123,0.214,-0.486,0.000,-0.237,-0.096,800.0,810.0,820.0,830.0,840.0,58.0,8.0,0.1,0.0,0.9,5.2,-3.7,1.8,1,1.0,1.0,1.0,1.0,85.0
2023-05-12 17:26:56.352,-1.095,-0.146,-0.557,0.343,-1.106,-0.052,-0.345,0.271,-0.632,0.221,0.247,0.915,-0.461,0.217,0.107,0.184,-0.502,0.035,-0.252,-0.122,800.0,810.0,820.0,830.0,840.0,58.0,8.0,0.1,0.0,0.9,5.2,-3.7,1.8,1,1.0,1.0,1.0,1.0,85.0
2023-05-12 17:26:56.432,-1.134,-0.116,-0.506,0.356,-1.088,-0.045,-0.377,0.268,-0.590,0.189,0.232,0.915,-0.463,0.215,0.062,0.145,-0.516,0.059,-0.261,-0.126,800.0,810.0,820.0,830.0,840.0,58.0,8.0,0.1,0.0,0.9,5.2,-3.7,1.8,1,1.0,1.0,1.0,1.0,85.0
2023-05-12 17:26:56.495,-1.157,-0.095,-0.475,0.367,-1.081,0.013,-0.409,0.273,-0.554,0.188,0.227,0.917,-0.460,0.206,0.043,0.132,-0.541,0.105,-0.270,-0.120,800.0,810.0,820.0,830.0,840.0,58.0,8.0,0.1,0.0,0.9,5.2,-3.7,1.8,1,1.0,1.0,1.0,1.0,85.0
2023-05-12 17:26:56.723,-1.213,-0.073,-0.442,0.387,-1.086,0.027,-0.423,0.278,-0.495,0.181,0.226,0.923,-0.435,0.172,0.021,0.114,-0.543,0.121,-0.268,-0.115,800.0,810.0,820.0,830.0,840.0,58.0,8.0,0.1,0.0,0.9,5.2,-3.7,1.8,1,1.0,1.0,1.0,1.0,85.0
2023-05-12 17:26:56.851,-1.259,-0.037,-0.369,0.430,-1.129,0.038,-0.449,0.263,-0.498,0.173,0.226,0.923,-0.420,0.157,0.011,0.108,-0.532,0.133,-0.267,-0.112,800.0,810.0,820.0,830.0,840.0,58.0,8.0,0.1,0.0,0.9,5.2,-3.7,1.8,1,1.0,1.0,1.0,1.0,85.0
2023-05-12 17:26:57.019,-1.247,-0.011,-0.344,0.441,-1.158,0.053,-0.458,0.249,-0.471,0.145,0.211,0.879,-0.412,0.150,-0.005,0.101,-0.494,0.159,-0.280,-0.126,800.0,810.0,820.0,830.0,840.0,58.0,8.0,0.1,0.0,0.9,5.2,-3.7,1.8,1,1.0,1.0,1.0,1.0,85.0
2023-05-12 17:26:57.122,-1.255,0.045,-0.312,0.418,-1.187,0.074,-0.467,0.246,-0.460,0.136,0.182,0.803,-0.420,0.149,-0.046,0.082,-0.485,0.175,-0.288,-0.145,800.0,810.0,820.0,830.0,840.0,58.0,8.0,0.1,0.0,0.9,5.2,-3.7,1.8,1,1.0,1.0,1.0,1.0,85.0
2023-05-12 17:26:57.233,-1.272,0.061,-0.277,0.390,-1.244,0.114,-0.475,0.273,-0.486,0.106,0.160,0.705,-0.432,0.144,-0.058,0.073,-0.490,0.201,-0.275,-0.189,800.0,810.0,820.0,830.0,840.0,58.0,8.0,0.1,0.0,0.9,5.2,-3.7,1.8,1,1.0,1.0,1.0,1.0,85.0
2023-05-12 17:26:57.473,-1.295,0.061,-0.218,0.361,-1.266,0.117,-0.460,0.276,-0.522,0.106,0.125,0.572,-0.456,0.121,-0.047,0.069,-0.488,0.204,-0.257,-0.204,800.0,810.0,820.0,830.0,840.0,58.0,8.0,0.1,0.0,0.9,5.2,-3.7,1.8,1,1.0,1.0,1.0,1.0,85.0
2023-05-12 17:26:57.570,-1.324,0.015,-0.098,0.320,-1.290,0.086,-0.393,0.247,-0.520,0.106,0.075,0.500,-0.466,0.113,-0.036,0.075,-0.486,0.198,-0.245,-0.212,800.0,810.0,820.0,830.0,840.0,58.0,8.0,0.1,0.0,0.9,5.2,-3.7,1.8,1,1.0,1.0,1.0,1.0,85.0
2023-05-12 17:26:57.737,-1.312,-0.015,-0.065,0.297,-1.307,0.062,-0.338,0.248,-0.520,0.114,0.055,0.447,-0.472,0.111,-0.029,0.088,-0.491,0.169,-0.247,-0.217,800.0,810.0,820.0,830.0,840.0,58.0,8.0,0.1,0.0,0.9,5.2,-3.7,1.8,1,1.0,1.0,1.0,1.0,85.0
2023-05-12 17:26:57.844,-1.244,-0.060,-0.048,0.230,-1.333,0.033,-0.269,0.269,-0.520,0.106,0.055,0.451,-0.464,0.108,-0.017,0.113,-0.496,0.150,-0.257,-0.213,800.0,810.0,820.0,830.0,840.0,58.0,8.0,0.1,0.0,0.9,5.2,-3.7,1.8,1,1.0,1.0,1.0,1.0,85.0
2023-05-12 17:26:57.940,-1.203,-0.085,-0.046,0.204,-1.322,-0.064,-0.146,0.311,-0.523,0.072,0.055,0.456,-0.451,0.104,-0.008,0.124,-0.500,0.112,-0.277,-0.207,800.0,810.0,820.0,830.0,840.0,58.0,8.0,0.1,0.0,0.9,5.2,-3.7,1.8,1,1.0,1.0,1.0,1.0,85.0
2023-05-12 17:26:58.137,-1.165,-0.117,-0.046,0.178,-1.255,-0.111,-0.113,0.318,-0.499,-0.059,0.055,0.609,-0.436,0.102,-0.003,0.145,-0.502,0.105,-0.281,-0.214,800.0,810.0,820.0,830.0,840.0,58.0,8.0,0.1,0.0,0.9,5.2,-3.7,1.8,1,1.0,1.0,1.0,1.0,85.0
2023-05-12 17:26:58.241,-1.130,-0.169,-0.057,0.110,-1.126,-0.130,-0.084,0.321,-0.482,-0.029,0.043,0.636,-0.440,0.106,-0.006,0.148,-0.509,0.107,-0.275,-0.228,800.0,810.0,820.0,830.0,840.0,58.0,8.0,0.1,0.0,0.9,5.2,-3.7,1.8,1,1.0,1.0,1.0,1.0,85.0
2023-05-12 17:26:58.493,-1.140,-0.180,-0.060,0.080,-1.096,-0.120,-0.076,0.316,-0.476,0.020,-0.013,0.660,-0.449,0.114,-0.005,0.150,-0.553,0.118,-0.242,-0.252,800.0,810.0,820.0,830.0,840.0,58.0,8.0,0.1,0.0,0.9,5.2,-3.7,1.8,1,1.0,1.0,1.0,1.0,85.0
2023-05-12 17:26:58.585,-1.167,-0.188,-0.021,0.105,-1.080,-0.118,-0.064,0.301,-0.490,0.084,-0.047,0.668,-0.465,0.128,0.015,0.175,-0.590,0.121,-0.228,-0.245,800.0,810.0,820.0,830.0,840.0,58.0,8.0,0.1,0.0,0.9,5.2,-3.7,1.8,1,1.0,1.0,1.0,1.0,85.0
2023-05-12 17:26:58.683,-1.163,-0.175,0.017,0.166,-1.057,-0.168,-0.033,0.251,-0.526,0.133,-0.045,0.673,-0.465,0.130,0.029,0.193,-0.671,0.131,-0.226,-0.194,800.0,810.0,820.0,830.0,840.0,58.0,8.0,0.1,0.0,0.9,5.2,-3.7,1.8,1,1.0,1.0,1.0,1.0,85.0
2023-05-12 17:26:58.849,-1.150,-0.150,0.050,0.228,-1.048,-0.214,-0.019,0.227,-0.589,0.205,-0.013,0.691,-0.437,0.133,0.050,0.216,-0.700,0.144,-0.234,-0.174,800.0,810.0,820.0,830.0,840.0,58.0,8.0,0.1,0.0,0.9,5.2,-3.7,1.8,1,1.0,1.0,1.0,1.0,85.0
2023-05-12 17:26:58.953,-1.112,-0.076,0.065,0.309,-1.041,-0.272,-0.012,0.209,-0.596,0.211,-0.008,0.691,-0.409,0.134,0.057,0.223,-0.721,0.163,-0.241,-0.165,800.0,810.0,820.0,830.0,840.0,58.0,8.0,0.1,0.0,0.9,5.2,-3.7,1.8,1,1.0,1.0,1.0,1.0,85.0
2023-05-12 17:26:59.151,-1.097,-0.042,0.055,0.327,-1.042,-0.271,-0.020,0.203,-0.653,0.223,0.021,0.703,-0.380,0.133,0.062,0.225,-0.744,0.210,-0.222,-0.151,800.0,810.0,820.0,830.0,840.0,58.0,8.0,0.1,0.0,0.9,5.2,-3.7,1.8,1,1.0,1.0,1.0,1.0,85.0
2023-05-12 17:26:59.293,-1.071,0.018,0.031,0.360,-1.046,-0.263,-0.040,0.186,-0.703,0.230,0.049,0.705,-0.345,0.131,0.068,0.215,-0.744,0.227,-0.203,-0.135,800.0,810.0,820.0,830.0,840.0,58.0,8.0,0.1,0.0,0.9,5.2,-3.7,1.8,1,1.0,1.0,1.0,1.0,85.0
2023-05-12 17:26:59.391,-1.054,0.041,0.020,0.379,-1.068,-0.250,-0.121,0.130,-0.731,0.225,0.066,0.738,-0.346,0.129,0.071,0.210,-0.730,0.240,-0.169,-0.101,800.0,810.0,820.0,830.0,840.0,58.0,8.0,0.1,0.0,0.9,5.2,-3.7,1.8,1,1.0,1.0,1.0,1.0,85.0
2023-05-12 17:26:59.598,-1.046,0.069,0.022,0.410,-1.100,-0.244,-0.163,0.128,-0.723,0.224,0.087,0.796,-0.371,0.121,0.079,0.217,-0.723,0.240,-0.151,-0.090,800.0,810.0,820.0,830.0,840.0,58.0,8.0,0.1,0.0,0.9,5.2,-3.7,1.8,1,1.0,1.0,1.0,1.0,85.0
2023-05-12 17:26:59.681,-1.064,0.129,0.059,0.499,-1.210,-0.252,-0.150,0.235,-0.708,0.248,0.087,0.802,-0.386,0.126,0.081,0.227,-0.716,0.239,-0.138,-0.083,800.0,810.0,820.0,830.0,840.0,58.0,8.0,0.1,0.0,0.9,5.2,-3.7,1.8,1,1.0,1.0,1.0,1.0,85.0
2023-05-12 17:26:59.852,-1.067,0.147,0.079,0.531,-1.256,-0.275,-0.113,0.301,-0.716,0.247,0.087,0.802,-0.399,0.136,0.079,0.235,-0.689,0.237,-0.133,-0.083,800.0,810.0,820.0,830.0,840.0,58.0,8.0,0.1,0.0,0.9,5.2,-3.7,1.8,1,1.0,1.0,1.0,1.0,85.0
2023-05-12 17:26:59.991,-1.066,0.151,0.092,0.543,-1.268,-0.308,-0.083,0.347,-0.701,0.247,0.087,0.802,-0.419,0.136,0.054,0.230,-0.675,0.238,-0.132,-0.091,800.0,810.0,820.0,830.0,840.0,58.0,8.0,0.1,0.0,0.9,5.2,-3.7,1.8,1,1.0,1.0,1.0,1.0,85.0
2023-05-12 17:27:00.079,-1.070,0.138,0.078,0.527,-1.175,-0.386,-0.073,0.388,-0.703,0.247,0.087,0.800,-0.428,0.122,0.033,0.212,-0.674,0.249,-0.114,-0.132,800.0,810.0,820.0,830.0,840.0,58.0,8.0,0.1,0.0,0.9,5.2,-3.7,1.8,1,1.0,1.0,1.0,1.0,85.0
2023-05-12 17:27:00.302,-1.075,0.120,0.048,0.502,-1.110,-0.419,-0.082,0.398,-0.708,0.249,0.072,0.759,-0.446,0.107,-0.018,0.179,-0.689,0.252,-0.107,-0.161,800.0,810.0,820.0,830.0,840.0,58.0,8.0,0.1,0.0,0.9,5.2,-3.7,1.8,1,1.0,1.0,1.0,1.0,85.0
2023-05-12 17:27:00.402,-1.082,0.084,-0.049,0.446,-1.022,-0.452,-0.094,0.416,-0.683,0.250,0.065,0.734,-0.466,0.112,-0.046,0.172,-0.707,0.254,-0.105,-0.189,800.0,810.0,820.0,830.0,840.0,58.0,8.0,0.1,0.0,0.9,5.2,-3.7,1.8,1,1.0,1.0,1.0,1.0,85.0
2023-05-12 17:27:00.597,-1.086,0.066,-0.101,0.422,-0.996,-0.461,-0.096,0.430,-0.599,0.183,0.070,0.678,-0.497,0.118,-0.074,0.168,-0.689,0.243,-0.121,-0.225,800.0,810.0,820.0,830.0,840.0,58.0,8.0,0.1,0.0,0.9,5.2,-3.7,1.8,1,1.0,1.0,1.0,1.0,85.0
2023-05-12 17:27:00.714,-1.119,0.052,-0.159,0.388,-0.965,-0.471,-0.103,0.451,-0.601,0.141,0.065,0.678,-0.578,0.130,-0.123,0.168,-0.649,0.229,-0.141,-0.241,800.0,810.0,820.0,830.0,840.0,58.0,8.0,0.1,0.0,0.9,5.2,-3.7,1.8,1,1.0,1.0,1.0,1.0,85.0
2023-05-12 17:27:00.766,-1.157,0.058,-0.166,0.368,-0.871,-0.484,-0.125,0.485,-0.625,0.079,0.054,0.667,-0.613,0.138,-0.142,0.171,-0.568,0.198,-0.199,-0.277,800.0,810.0,820.0,830.0,840.0,58.0,8.0,0.1,0.0,0.9,5.2,-3.7,1.8,1,1.0,1.0,1.0,1.0,85.0
2023-05-12 17:27:00.998,-1.210,0.075,-0.174,0.342,-0.828,-0.481,-0.129,0.484,-0.653,-0.077,0.015,0.593,-0.656,0.154,-0.172,0.168,-0.541,0.189,-0.237,-0.296,800.0,810.0,820.0,830.0,840.0,58.0,8.0,0.1,0.0,0.9,5.2,-3.7,1.8,1,1.0,1.0,1.0,1.0,85.0
2023-05-12 17:27:01.104,-1.292,0.074,-0.254,0.213,-0.789,-0.479,-0.146,0.442,-0.662,-0.073,-0.058,0.516,-0.659,0.153,-0.179,0.156,-0.523,0.188,-0.277,-0.311,800.0,810.0,820.0,830.0,840.0,58.0,8.0,0.1,0.0,0.9,5.2,-3.7,1.8,1,1.0,1.0,1.0,1.0,85.0
2023-05-12 17:27:01.290,-1.306,0.045,-0.322,0.107,-0.784,-0.484,-0.183,0.402,-0.688,-0.045,-0.109,0.472,-0.649,0.145,-0.173,0.143,-0.508,0.214,-0.326,-0.324,800.0,810.0,820.0,830.0,840.0,58.0,8.0,0.1,0.0,0.9,5.2,-3.7,1.8,1,1.0,1.0,1.0,1.0,85.0
2023-05-12 17:27:01.355,-1.295,-0.008,-0.456,-0.058,-0.778,-0.484,-0.237,0.359,-0.653,-0.062,-0.093,0.578,-0.606,0.122,-0.126,0.141,-0.510,0.230,-0.334,-0.317,800.0,810.0,820.0,830.0,840.0,58.0,8.0,0.1,0.0,0.9,5.2,-3.7,1.8,1,1.0,1.0,1.0,1.0,85.0
2023-05-12 17:27:01.579,-1.274,-0.008,-0.507,-0.099,-0.741,-0.464,-0.337,0.314,-0.595,-0.078,-0.089,0.664,-0.586,0.118,-0.099,0.156,-0.523,0.232,-0.355,-0.286,800.0,810.0,820.0,830.0,840.0,58.0,8.0,0.1,0.0,0.9,5.2,-3.7,1.8,1,1.0,1.0,1.0,1.0,85.0
2023-05-12 17:27:01.729,-1.262,0.010,-0.539,-0.125,-0.711,-0.450,-0.360,0.307,-0.448,-0.076,-0.087,0.790,-0.567,0.113,-0.061,0.192,-0.525,0.220,-0.355,-0.270,800.0,810.0,820.0,830.0,840.0,58.0,8.0,0.1,0.0,0.9,5.2,-3.7,1.8,1,1.0,1.0,1.0,1.0,85.0
2023-05-12 17:27:01.819,-1.285,0.042,-0.535,-0.141,-0.653,-0.386,-0.361,0.305,-0.389,-0.067,-0.082,0.854,-0.568,0.102,-0.045,0.203,-0.521,0.210,-0.342,-0.257,800.0,810.0,820.0,830.0,840.0,58.0,8.0,0.1,0.0,0.9,5.2,-3.7,1.8,1,1.0,1.0,1.0,1.0,85.0
2023-05-12 17:27:01.992,-1.318,0.037,-0.493,-0.130,-0.638,-0.335,-0.350,0.306,-0.366,-0.016,-0.099,0.902,-0.573,0.088,-0.029,0.210,-0.512,0.199,-0.319,-0.243,800.0,810.0,820.0,830.0,840.0,58.0,8.0,0.1,0.0,0.9,5.2,-3.7,1.8,1,1.0,1.0,1.0,1.0,85.0
2023-05-12 17:27:02.186,-1.371,0.001,-0.374,-0.113,-0.633,-0.286,-0.339,0.296,-0.347,-0.005,-0.102,0.902,-0.566,0.066,-0.015,0.216,-0.518,0.195,-0.321,-0.241,800.0,810.0,820.0,830.0,840.0,58.0,8.0,0.1,0.0,0.9,5.2,-3.7,1.8,1,1.0,1.0,1.0,1.0,85.0
2023-05-12 17:27:02.230,-1.382,-0.026,-0.327,-0.107,-0.665,-0.205,-0.327,0.238,-0.343,-0.005,-0.114,0.902,-0.550,0.059,-0.016,0.214,-0.554,0.206,-0.323,-0.239,800.0,810.0,820.0,830.0,840.0,58.0,8.0,0.1,0.0,0.9,5.2,-3.7,1.8,1,1.0,1.0,1.0,1.0,85.0
2023-05-12 17:27:02.407,-1.380,-0.061,-0.291,-0.095,-0.698,-0.172,-0.313,0.212,-0.343,-0.005,-0.114,0.891,-0.506,0.075,-0.011,0.204,-0.580,0.219,-0.318,-0.238,800.0,810.0,820.0,830.0,840.0,58.0,8.0,0.1,0.0,0.9,5.2,-3.7,1.8,1,1.0,1.0,1.0,1.0,85.0
2023-05-12 17:27:02.502,-1.331,-0.160,-0.241,-0.059,-0.764,-0.138,-0.255,0.187,-0.343,-0.010,-0.076,0.890,-0.489,0.101,-0.009,0.199,-0.607,0.229,-0.308,-0.239,800.0,810.0,820.0,830.0,840.0,58.0,8.0,0.1,0.0,0.9,5.2,-3.7,1.8,1,1.0,1.0,1.0,1.0,85.0
2023-05-12 17:27:02.763,-1.303,-0.197,-0.215,-0.035,-0.783,-0.134,-0.225,0.162,-0.343,-0.028,-0.024,0.890,-0.481,0.130,-0.010,0.189,-0.631,0.212,-0.283,-0.254,800.0,810.0,820.0,830.0,840.0,58.0,8.0,0.1,0.0,0.9,5.2,-3.7,1.8,1,1.0,1.0,1.0,1.0,85.0
2023-05-12 17:27:02.831,-1.251,-0.229,-0.175,-0.001,-0.795,-0.128,-0.199,0.124,-0.343,-0.049,-0.024,0.890,-0.491,0.160,-0.023,0.159,-0.622,0.184,-0.273,-0.265,800.0,810.0,820.0,830.0,840.0,58.0,8.0,0.1,0.0,0.9,5.2,-3.7,1.8,1,1.0,1.0,1.0,1.0,85.0
2023-05-12 17:27:02.906,-1.222,-0.246,-0.158,0.005,-0.828,-0.096,-0.152,0.038,-0.341,-0.076,-0.025,0.890,-0.497,0.158,-0.026,0.144,-0.581,0.137,-0.270,-0.271,800.0,810.0,820.0,830.0,840.0,58.0,8.0,0.1,0.0,0.9,5.2,-3.7,1.8,1,1.0,1.0,1.0,1.0,85.0
2023-05-12 17:27:03.137,-1.193,-0.276,-0.142,0.010,-0.872,-0.065,-0.129,0.007,-0.327,-0.085,-0.025,0.890,-0.496,0.149,-0.015,0.133,-0.561,0.134,-0.280,-0.263,800.0,810.0,820.0,830.0,840.0,58.0,8.0,0.1,0.0,0.9,5.2,-3.7,1.8,1,1.0,1.0,1.0,1.0,85.0
2023-05-12 17:27:03.211,-1.130,-0.389,-0.098,-0.001,-1.044,0.018,-0.095,-0.038,-0.338,-0.042,-0.027,0.872,-0.495,0.151,-0.010,0.135,-0.545,0.142,-0.298,-0.251,800.0,810.0,820.0,830.0,840.0,58.0,8.0,0.1,0.0,0.9,5.2,-3.7,1.8,1,1.0,1.0,1.0,1.0,85.0
2023-05-12 17:27:03.473,-1.104,-0.443,-0.077,-0.019,-1.152,0.046,-0.086,-0.063,-0.489,0.183,0.151,0.705,-0.490,0.155,-0.012,0.136,-0.535,0.170,-0.325,-0.208,800.0,810.0,820.0,830.0,840.0,58.0,8.0,0.1,0.0,0.9,5.2,-3.7,1.8,1,1.0,1.0,1.0,1.0,85.0
2023-05-12 17:27:03.571,-1.068,-0.463,-0.048,-0.060,-1.229,0.057,-0.075,-0.095,-0.563,0.237,0.219,0.566,-0.465,0.166,-0.017,0.138,-0.538,0.186,-0.318,-0.178,800.0,810.0,820.0,830.0,840.0,58.0,8.0,0.1,0.0,0.9,5.2,-3.7,1.8,1,1.0,1.0,1.0,1.0,85.0
2023-05-12 17:27:03.609,-1.054,-0.456,-0.043,-0.043,-1.221,0.036,-0.035,-0.162,-0.569,0.247,0.224,0.445,-0.452,0.173,-0.011,0.151,-0.555,0.220,-0.272,-0.143,800.0,810.0,820.0,830.0,840.0,58.0,8.0,0.1,0.0,0.9,5.2,-3.7,1.8,1,1.0,1.0,1.0,1.0,85.0
2023-05-12 17:27:03.873,-1.041,-0.453,-0.048,0.003,-1.184,0.015,-0.021,-0.180,-0.586,0.247,0.229,0.246,-0.444,0.182,-0.004,0.204,-0.568,0.238,-0.242,-0.140,800.0,810.0,820.0,830.0,840.0,58.0,8.0,0.1,0.0,0.9,5.2,-3.7,1.8,1,1.0,1.0,1.0,1.0,85.0
2023-05-12 17:27:03.973,-1.030,-0.449,-0.078,0.107,-1.121,-0.027,-0.038,-0.196,-0.587,0.247,0.229,0.197,-0.450,0.181,-0.013,0.234,-0.579,0.259,-0.209,-0.140,800.0,810.0,820.0,830.0,840.0,58.0,8.0,0.1,0.0,0.9,5.2,-3.7,1.8,1,1.0,1.0,1.0,1.0,85.0
2023-05-12 17:27:04.165,-1.036,-0.450,-0.091,0.143,-1.095,-0.038,-0.065,-0.198,-0.588,0.247,0.227,0.197,-0.459,0.175,-0.024,0.262,-0.586,0.313,-0.145,-0.131,800.0,810.0,820.0,830.0,840.0,58.0,8.0,0.1,0.0,0.9,5.2,-3.7,1.8,1,1.0,1.0,1.0,1.0,85.0
2023-05-12 17:27:04.279,-1.053,-0.434,-0.110,0.189,-1.075,-0.043,-0.095,-0.186,-0.588,0.247,0.213,0.197,-0.471,0.155,-0.028,0.303,-0.583,0.339,-0.125,-0.125,800.0,810.0,820.0,830.0,840.0,58.0,8.0,0.1,0.0,0.9,5.2,-3.7,1.8,1,1.0,1.0,1.0,1.0,85.0
2023-05-12 17:27:04.401,-1.061,-0.415,-0.112,0.211,-1.035,-0.054,-0.151,-0.134,-0.580,0.247,0.202,0.204,-0.473,0.149,-0.018,0.309,-0.565,0.372,-0.110,-0.110,800.0,810.0,820.0,830.0,840.0,58.0,8.0,0.1,0.0,0.9,5.2,-3.7,1.8,1,1.0,1.0,1.0,1.0,85.0
2023-05-12 17:27:04.566,-1.071,-0.401,-0.117,0.234,-1.004,-0.073,-0.176,-0.107,-0.575,0.246,0.185,0.207,-0.477,0.145,0.015,0.295,-0.556,0.381,-0.108,-0.103,800.0,810.0,820.0,830.0,840.0,58.0,8.0,0.1,0.0,0.9,5.2,-3.7,1.8,1,1.0,1.0,1.0,1.0,85.0
2023-05-12 17:27:04.678,-1.080,-0.396,-0.152,0.279,-0.932,-0.165,-0.205,-0.053,-0.583,0.237,0.172,0.207,-0.476,0.142,0.030,0.277,-0.552,0.388,-0.107,-0.094,800.0,810.0,820.0,830.0,840.0,58.0,8.0,0.1,0.0,0.9,5.2,-3.7,1.8,1,1.0,1.0,1.0,1.0,85.0
2023-05-12 17:27:04.825,-1.068,-0.399,-0.178,0.300,-0.905,-0.239,-0.208,-0.040,-0.563,0.207,0.169,0.207,-0.470,0.139,0.044,0.260,-0.557,0.382,-0.102,-0.079,800.0,810.0,820.0,830.0,840.0,58.0,8.0,0.1,0.0,0.9,5.2,-3.7,1.8,1,1.0,1.0,1.0,1.0,85.0
2023-05-12 17:27:04.928,-1.032,-0.411,-0.187,0.328,-0.888,-0.314,-0.208,-0.040,-0.534,0.151,0.167,0.199,-0.465,0.147,0.071,0.239,-0.563,0.368,-0.099,-0.081,800.0,810.0,820.0,830.0,840.0,58.0,8.0,0.1,0.0,0.9,5.2,-3.7,1.8,1,1.0,1.0,1.0,1.0,85.0
2023-05-12 17:27:05.061,-1.019,-0.384,-0.172,0.334,-0.898,-0.360,-0.222,-0.018,-0.526,0.100,0.146,0.185,-0.473,0.158,0.082,0.229,-0.574,0.334,-0.089,-0.106,800.0,810.0,820.0,830.0,840.0,58.0,8.0,0.1,0.0,0.9,5.2,-3.7,1.8,1,1.0,1.0,1.0,1.0,85.0
2023-05-12 17:27:05.289,-1.010,-0.307,-0.155,0.338,-0.921,-0.335,-0.241,0.050,-0.529,0.058,-0.070,0.309,-0.485,0.176,0.093,0.194,-0.573,0.320,-0.083,-0.115,800.0,810.0,820.0,830.0,840.0,58.0,8.0,0.1,0.0,0.9,5.2,-3.7,1.8,1,1.0,1.0,1.0,1.0,85.0
2023-05-12 17:27:05.393,-1.013,-0.067,-0.136,0.447,-0.968,-0.270,-0.288,0.303,-0.529,0.056,-0.121,0.399,-0.476,0.174,0.097,0.168,-0.563,0.303,-0.083,-0.119,800.0,810.0,820.0,830.0,840.0,58.0,8.0,0.1,0.0,0.9,5.2,-3.7,1.8,1,1.0,1.0,1.0,1.0,85.0
2023-05-12 17:27:05.549,-1.025,0.018,-0.131,0.564,-0.986,-0.239,-0.301,0.410,-0.504,0.040,-0.155,0.425,-0.458,0.163,0.106,0.138,-0.531,0.247,-0.120,-0.127,800.0,810.0,820.0,830.0,840.0,58.0,8.0,0.1,0.0,0.9,5.2,-3.7,1.8,1,1.0,1.0,1.0,1.0,85.0
2023-05-12 17:27:05.722,-1.045,0.098,-0.123,0.727,-1.002,-0.219,-0.306,0.474,-0.494,0.039,-0.142,0.435,-0.421,0.144,0.142,0.084,-0.523,0.209,-0.156,-0.128,800.0,810.0,820.0,830.0,840.0,58.0,8.0,0.1,0.0,0.9,5.2,-3.7,1.8,1,1.0,1.0,1.0,1.0,85.0
2023-05-12 17:27:05.812,-1.054,0.115,-0.117,0.753,-1.033,-0.211,-0.285,0.511,-0.484,0.039,-0.050,0.446,-0.414,0.148,0.160,0.079,-0.542,0.147,-0.230,-0.127,800.0,810.0,820.0,830.0,840.0,58.0,8.0,0.1,0.0,0.9,5.2,-3.7,1.8,1,1.0,1.0,1.0,1.0,85.0
2023-05-12 17:27:06.002,-1.059,0.146,-0.084,0.762,-1.049,-0.172,-0.241,0.513,-0.448,0.063,0.226,0.466,-0.412,0.185,0.187,0.108,-0.566,0.132,-0.246,-0.131,800.0,810.0,820.0,830.0,840.0,58.0,8.0,0.1,0.0,0.9,5.2,-3.7,1.8,1,1.0,1.0,1.0,1.0,85.0
2023-05-12 17:27:06.107,-1.051,0.324,0.137,0.774,-1.073,0.042,-0.060,0.509,-0.448,0.117,0.345,0.480,-0.412,0.211,0.198,0.128,-0.589,0.121,-0.239,-0.141,800.0,810.0,820.0,830.0,840.0,58.0,8.0,0.1,0.0,0.9,5.2,-3.7,1.8,1,1.0,1.0,1.0,1.0,85.0
2023-05-12 17:27:06.260,-1.061,0.418,0.252,0.783,-1.094,0.139,0.017,0.507,-0.448,0.270,0.381,0.553,-0.412,0.236,0.204,0.145,-0.618,0.091,-0.191,-0.176,800.0,810.0,820.0,830.0,840.0,58.0,8.0,0.1,0.0,0.9,5.2,-3.7,1.8,1,1.0,1.0,1.0,1.0,85.0
2023-05-12 17:27:06.445,-1.116,0.531,0.371,0.831,-1.127,0.198,0.061,0.512,-0.458,0.287,0.381,0.588,-0.408,0.266,0.205,0.173,-0.624,0.079,-0.173,-0.185,800.0,810.0,820.0,830.0,840.0,58.0,8.0,0.1,0.0,0.9,5.2,-3.7,1.8,1,1.0,1.0,1.0,1.0,85.0
2023-05-12 17:27:06.495,-1.133,0.562,0.389,0.861,-1.193,0.225,0.089,0.547,-0.471,0.304,0.381,0.603,-0.395,0.267,0.203,0.194,-0.620,0.078,-0.162,-0.146,800.0,810.0,820.0,830.0,840.0,58.0,8.0,0.1,0.0,0.9,5.2,-3.7,1.8,1,1.0,1.0,1.0,1.0,85.0
2023-05-12 17:27:06.681,-1.112,0.586,0.393,0.888,-1.189,0.219,0.093,0.559,-0.526,0.365,0.381,0.605,-0.360,0.246,0.209,0.248,-0.610,0.081,-0.166,-0.107,800.0,810.0,820.0,830.0,840.0,58.0,8.0,0.1,0.0,0.9,5.2,-3.7,1.8,1,1.0,1.0,1.0,1.0,85.0
2023-05-12 17:27:06.792,-1.042,0.602,0.390,0.912,-1.115,0.204,0.095,0.515,-0.527,0.366,0.381,0.610,-0.355,0.231,0.213,0.263,-0.606,0.077,-0.173,-0.066,800.0,810.0,820.0,830.0,840.0,58.0,8.0,0.1,0.0,0.9,5.2,-3.7,1.8,1,1.0,1.0,1.0,1.0,85.0
2023-05-12 17:27:07.004,-1.021,0.598,0.388,0.888,-1.080,0.202,0.098,0.449,-0.527,0.366,0.380,0.651,-0.362,0.220,0.214,0.269,-0.630,0.061,-0.155,0.036,800.0,810.0,820.0,830.0,840.0,58.0,8.0,0.1,0.0,0.9,5.2,-3.7,1.8,1,1.0,1.0,1.0,1.0,85.0
2023-05-12 17:27:07.077,-0.999,0.589,0.388,0.763,-1.058,0.204,0.102,0.373,-0.527,0.366,0.374,0.680,-0.394,0.214,0.203,0.275,-0.646,0.067,-0.127,0.091,800.0,810.0,820.0,830.0,840.0,58.0,8.0,0.1,0.0,0.9,5.2,-3.7,1.8,1,1.0,1.0,1.0,1.0,85.0
2023-05-12 17:27:07.178,-0.995,0.587,0.387,0.698,-1.029,0.219,0.108,0.307,-0.541,0.366,0.369,0.698,-0.403,0.219,0.188,0.279,-0.660,0.104,-0.076,0.164,800.0,810.0,820.0,830.0,840.0,58.0,8.0,0.1,0.0,0.9,5.2,-3.7,1.8,1,1.0,1.0,1.0,1.0,85.0
2023-05-12 17:27:07.368,-0.991,0.584,0.382,0.660,-1.005,0.223,0.105,0.324,-0.569,0.366,0.367,0.692,-0.396,0.223,0.140,0.274,-0.659,0.116,-0.058,0.182,800.0,810.0,820.0,830.0,840.0,58.0,8.0,0.1,0.0,0.9,5.2,-3.7,1.8,1,1.0,1.0,1.0,1.0,85.0
2023-05-12 17:27:07.475,-0.991,0.545,0.324,0.623,-0.975,0.170,0.041,0.365,-0.604,0.366,0.367,0.676,-0.381,0.211,0.105,0.265,-0.659,0.118,-0.047,0.195,800.0,810.0,820.0,830.0,840.0,58.0,8.0,0.1,0.0,0.9,5.2,-3.7,1.8,1,1.0,1.0,1.0,1.0,85.0
2023-05-12 17:27:07.711,-0.987,0.487,0.240,0.609,-0.983,0.090,-0.042,0.375,-0.787,0.355,0.290,0.734,-0.359,0.189,0.062,0.254,-0.664,0.105,-0.054,0.211,800.0,810.0,820.0,830.0,840.0,58.0,8.0,0.1,0.0,0.9,5.2,-3.7,1.8,1,1.0,1.0,1.0,1.0,85.0
2023-05-12 17:27:07.815,-0.974,0.332,-0.021,0.540,-0.999,-0.014,-0.143,0.377,-0.812,0.344,0.177,0.740,-0.303,0.142,-0.018,0.248,-0.667,0.096,-0.070,0.215,800.0,810.0,820.0,830.0,840.0,58.0,8.0,0.1,0.0,0.9,5.2,-3.7,1.8,1,1.0,1.0,1.0,1.0,85.0
2023-05-12 17:27:07.876,-0.972,0.266,-0.155,0.475,-1.010,-0.163,-0.289,0.347,-0.812,0.292,0.043,0.735,-0.288,0.125,-0.039,0.246,-0.663,0.067,-0.103,0.200,800.0,810.0,820.0,830.0,840.0,58.0,8.0,0.1,0.0,0.9,5.2,-3.7,1.8,1,1.0,1.0,1.0,1.0,85.0
2023-05-12 17:27:08.091,-0.980,0.208,-0.270,0.403,-1.006,-0.188,-0.334,0.327,-0.812,0.232,-0.161,0.706,-0.302,0.103,-0.064,0.208,-0.663,0.044,-0.118,0.180,800.0,810.0,820.0,830.0,840.0,58.0,8.0,0.1,0.0,0.9,5.2,-3.7,1.8,1,1.0,1.0,1.0,1.0,85.0
2023-05-12 17:27:08.196,-1.049,0.073,-0.478,0.291,-0.994,-0.217,-0.411,0.341,-0.816,0.211,-0.170,0.691,-0.316,0.097,-0.079,0.175,-0.667,0.021,-0.131,0.159,800.0,810.0,820.0,830.0,840.0,58.0,8.0,0.1,0.0,0.9,5.2,-3.7,1.8,1,1.0,1.0,1.0,1.0,85.0
2023-05-12 17:27:08.430,-1.079,0.002,-0.534,0.232,-0.966,-0.236,-0.416,0.349,-0.704,0.100,-0.162,0.684,-0.325,0.091,-0.096,0.155,-0.666,0.008,-0.163,0.127,800.0,810.0,820.0,830.0,840.0,58.0,8.0,0.1,0.0,0.9,5.2,-3.7,1.8,1,1.0,1.0,1.0,1.0,85.0
2023-05-12 17:27:08.532,-1.041,-0.161,-0.520,0.168,-0.914,-0.267,-0.394,0.353,-0.685,0.063,-0.138,0.684,-0.324,0.081,-0.118,0.136,-0.656,0.014,-0.192,0.098,800.0,810.0,820.0,830.0,840.0,58.0,8.0,0.1,0.0,0.9,5.2,-3.7,1.8,1,1.0,1.0,1.0,1.0,85.0
2023-05-12 17:27:08.594,-1.010,-0.228,-0.498,0.168,-0.815,-0.352,-0.313,0.344,-0.685,0.042,-0.123,0.683,-0.323,0.091,-0.124,0.127,-0.637,0.015,-0.263,-0.002,800.0,810.0,820.0,830.0,840.0,58.0,8.0,0.1,0.0,0.9,5.2,-3.7,1.8,1,1.0,1.0,1.0,1.0,85.0
2023-05-12 17:27:08.862,-0.993,-0.273,-0.473,0.177,-0.796,-0.383,-0.275,0.331,-0.678,-0.054,-0.123,0.766,-0.327,0.146,-0.122,0.183,-0.634,0.005,-0.282,-0.047,800.0,810.0,820.0,830.0,840.0,58.0,8.0,0.1,0.0,0.9,5.2,-3.7,1.8,1,1.0,1.0,1.0,1.0,85.0
2023-05-12 17:27:08.909,-0.999,-0.312,-0.440,0.578,-0.813,-0.424,-0.224,0.569,-0.630,-0.058,-0.124,0.760,-0.329,0.170,-0.115,0.231,-0.637,-0.004,-0.290,-0.061,800.0,810.0,820.0,830.0,840.0,58.0,8.0,0.1,0.0,0.9,5.2,-3.7,1.8,1,1.0,1.0,1.0,1.0,85.0
2023-05-12 17:27:09.145,-1.016,-0.328,-0.437,0.617,-0.830,-0.444,-0.215,0.612,-0.580,-0.007,-0.146,0.764,-0.334,0.182,-0.107,0.262,-0.645,-0.002,-0.294,-0.061,800.0,810.0,820.0,830.0,840.0,58.0,8.0,0.1,0.0,0.9,5.2,-3.7,1.8,1,1.0,1.0,1.0,1.0,85.0
2023-05-12 17:27:09.175,-1.060,-0.389,-0.423,0.652,-0.838,-0.456,-0.216,0.629,-0.571,0.048,-0.176,0.769,-0.372,0.183,-0.088,0.287,-0.645,0.009,-0.287,-0.071,800.0,810.0,820.0,830.0,840.0,58.0,8.0,0.1,0.0,0.9,5.2,-3.7,1.8,1,1.0,1.0,1.0,1.0,85.0
2023-05-12 17:27:09.299,-1.073,-0.433,-0.405,0.672,-0.820,-0.435,-0.232,0.641,-0.551,0.097,-0.221,0.768,-0.407,0.190,-0.074,0.279,-0.635,0.029,-0.266,-0.105,800.0,810.0,820.0,830.0,840.0,58.0,8.0,0.1,0.0,0.9,5.2,-3.7,1.8,1,1.0,1.0,1.0,1.0,85.0
2023-05-12 17:27:09.519,-1.075,-0.459,-0.374,0.691,-0.804,-0.398,-0.230,0.642,-0.493,0.142,-0.275,0.766,-0.471,0.239,-0.038,0.260,-0.625,0.037,-0.260,-0.108,800.0,810.0,820.0,830.0,840.0,58.0,8.0,0.1,0.0,0.9,5.2,-3.7,1.8,1,1.0,1.0,1.0,1.0,85.0
2023-05-12 17:27:09.592,-1.066,-0.355,-0.276,0.709,-0.795,-0.300,-0.173,0.622,-0.483,0.155,-0.272,0.746,-0.489,0.269,-0.021,0.265,-0.611,0.047,-0.257,-0.095,800.0,810.0,820.0,830.0,840.0,58.0,8.0,0.1,0.0,0.9,5.2,-3.7,1.8,1,1.0,1.0,1.0,1.0,85.0
2023-05-12 17:27:09.793,-1.047,-0.255,-0.228,0.707,-0.808,-0.268,-0.138,0.599,-0.480,0.129,-0.265,0.661,-0.499,0.292,-0.007,0.271,-0.575,0.069,-0.253,-0.075,800.0,810.0,820.0,830.0,840.0,58.0,8.0,0.1,0.0,0.9,5.2,-3.7,1.8,1,1.0,1.0,1.0,1.0,85.0
2023-05-12 17:27:09.894,-1.046,-0.136,-0.187,0.667,-0.837,-0.255,-0.119,0.569,-0.480,0.090,-0.258,0.661,-0.505,0.318,0.013,0.238,-0.566,0.074,-0.246,-0.087,800.0,810.0,820.0,830.0,840.0,58.0,8.0,0.1,0.0,0.9,5.2,-3.7,1.8,1,1.0,1.0,1.0,1.0,85.0
2023-05-12 17:27:10.023,-1.082,-0.121,-0.202,0.639,-0.930,-0.260,-0.148,0.512,-0.486,0.077,-0.234,0.661,-0.501,0.324,0.022,0.226,-0.573,0.066,-0.199,-0.120,800.0,810.0,820.0,830.0,840.0,58.0,8.0,0.1,0.0,0.9,5.2,-3.7,1.8,1,1.0,1.0,1.0,1.0,85.0
2023-05-12 17:27:10.221,-1.125,-0.112,-0.224,0.610,-0.961,-0.263,-0.182,0.485,-0.518,0.100,-0.247,0.661,-0.485,0.310,0.056,0.221,-0.581,0.054,-0.173,-0.135,800.0,810.0,820.0,830.0,840.0,58.0,8.0,0.1,0.0,0.9,5.2,-3.7,1.8,1,1.0,1.0,1.0,1.0,85.0
2023-05-12 17:27:10.326,-1.142,-0.065,-0.222,0.507,-0.953,-0.258,-0.226,0.378,-0.531,0.116,-0.234,0.625,-0.486,0.286,0.086,0.176,-0.587,0.040,-0.159,-0.135,800.0,810.0,820.0,830.0,840.0,58.0,8.0,0.1,0.0,0.9,5.2,-3.7,1.8,1,1.0,1.0,1.0,1.0,85.0
2023-05-12 17:27:10.504,-1.120,-0.005,-0.121,0.419,-0.944,-0.250,-0.223,0.250,-0.544,0.108,-0.179,0.503,-0.498,0.262,0.120,0.133,-0.604,0.014,-0.164,-0.189,800.0,810.0,820.0,830.0,840.0,58.0,8.0,0.1,0.0,0.9,5.2,-3.7,1.8,1,1.0,1.0,1.0,1.0,85.0
2023-05-12 17:27:10.625,-1.084,0.215,0.266,0.385,-0.941,-0.237,-0.205,0.137,-0.562,0.118,-0.084,0.476,-0.542,0.253,0.168,0.080,-0.612,0.004,-0.169,-0.218,800.0,810.0,820.0,830.0,840.0,58.0,8.0,0.1,0.0,0.9,5.2,-3.7,1.8,1,1.0,1.0,1.0,1.0,85.0
2023-05-12 17:27:10.753,-1.078,0.369,0.432,0.380,-0.953,-0.190,-0.165,0.014,-0.568,0.127,-0.014,0.439,-0.560,0.266,0.176,0.071,-0.617,-0.002,-0.167,-0.237,800.0,810.0,820.0,830.0,840.0,58.0,8.0,0.1,0.0,0.9,5.2,-3.7,1.8,1,1.0,1.0,1.0,1.0,85.0
2023-05-12 17:27:10.948,-1.083,0.397,0.554,0.377,-0.966,-0.186,-0.158,-0.013,-0.562,0.119,0.005,0.240,-0.578,0.275,0.173,0.085,-0.618,0.001,-0.161,-0.232,800.0,810.0,820.0,830.0,840.0,58.0,8.0,0.1,0.0,0.9,5.2,-3.7,1.8,1,1.0,1.0,1.0,1.0,85.0
2023-05-12 17:27:11.011,-1.112,0.445,0.684,0.332,-0.988,-0.208,-0.185,-0.037,-0.568,0.074,0.005,0.109,-0.580,0.262,0.169,0.084,-0.624,0.006,-0.150,-0.232,800.0,810.0,820.0,830.0,840.0,58.0,8.0,0.1,0.0,0.9,5.2,-3.7,1.8,1,1.0,1.0,1.0,1.0,85.0
2023-05-12 17:27:11.293,-1.144,0.460,0.712,0.276,-0.982,-0.229,-0.215,-0.064,-0.594,0.131,0.011,-0.182,-0.576,0.241,0.168,0.072,-0.666,0.002,-0.111,-0.283,800.0,810.0,820.0,830.0,840.0,58.0,8.0,0.1,0.0,0.9,5.2,-3.7,1.8,1,1.0,1.0,1.0,1.0,85.0
2023-05-12 17:27:11.363,-1.261,0.468,0.736,0.181,-0.964,-0.252,-0.246,-0.112,-0.607,0.136,0.011,-0.182,-0.537,0.209,0.173,0.063,-0.690,-0.018,-0.087,-0.333,800.0,810.0,820.0,830.0,840.0,58.0,8.0,0.1,0.0,0.9,5.2,-3.7,1.8,1,1.0,1.0,1.0,1.0,85.0
2023-05-12 17:27:11.519,-1.306,0.460,0.736,0.181,-0.928,-0.219,-0.284,-0.112,-0.628,0.137,0.013,-0.182,-0.516,0.193,0.173,0.063,-0.700,-0.047,-0.063,-0.333,800.0,810.0,820.0,830.0,840.0,58.0,8.0,0.1,0.0,0.9,5.2,-3.7,1.8,1,1.0,1.0,1.0,1.0,85.0
2023-05-12 17:27:11.675,-1.312,0.461,0.737,0.181,-0.924,-0.203,-0.286,-0.112,-0.629,0.137,0.015,-0.182,-0.513,0.141,0.157,0.063,-0.694,-0.060,-0.068,-0.333,800.0,810.0,820.0,830.0,840.0,58.0,8.0,0.1,0.0,0.9,5.2,-3.7,1.8,1,1.0,1.0,1.0,1.0,85.0
2023-05-12 17:27:11.784,-1.247,0.462,0.745,0.181,-0.942,-0.195,-0.250,-0.112,-0.634,0.140,0.012,-0.182,-0.523,0.112,0.139,0.063,-0.690,-0.073,-0.079,-0.333,800.0,810.0,820.0,830.0,840.0,58.0,8.0,0.1,0.0,0.9,5.2,-3.7,1.8,1,1.0,1.0,1.0,1.0,85.0
2023-05-12 17:27:11.988,-1.239,0.458,0.747,0.347,-0.951,-0.183,-0.216,0.015,-0.589,0.107,0.143,0.480,-0.524,0.093,0.113,0.209,-0.693,-0.093,-0.094,-0.189,800.0,810.0,820.0,830.0,840.0,58.0,8.0,0.1,0.0,0.9,5.2,-3.7,1.8,1,1.0,1.0,1.0,1.0,85.0
2023-05-12 17:27:12.093,-1.306,0.439,0.713,0.429,-0.951,-0.156,-0.186,0.014,-0.580,0.079,0.230,0.563,-0.497,0.081,0.046,0.163,-0.694,-0.107,-0.097,-0.127,800.0,810.0,820.0,830.0,840.0,58.0,8.0,0.1,0.0,0.9,5.2,-3.7,1.8,1,1.0,1.0,1.0,1.0,85.0
2023-05-12 17:27:12.203,-1.350,0.377,0.658,0.455,-0.922,-0.107,-0.163,-0.002,-0.581,0.091,0.252,0.624,-0.487,0.067,0.032,0.156,-0.694,-0.162,-0.112,-0.031,800.0,810.0,820.0,830.0,840.0,58.0,8.0,0.1,0.0,0.9,5.2,-3.7,1.8,1,1.0,1.0,1.0,1.0,85.0
2023-05-12 17:27:12.369,-1.380,0.202,0.575,0.473,-0.906,-0.100,-0.161,-0.013,-0.585,0.234,0.244,0.655,-0.470,0.048,0.053,0.212,-0.703,-0.195,-0.122,-0.018,800.0,810.0,820.0,830.0,840.0,58.0,8.0,0.1,0.0,0.9,5.2,-3.7,1.8,1,1.0,1.0,1.0,1.0,85.0
2023-05-12 17:27:12.508,-1.378,0.170,0.355,0.474,-0.894,-0.082,-0.154,-0.013,-0.596,0.258,0.237,0.672,-0.454,0.072,0.062,0.260,-0.720,-0.193,-0.129,-0.014,800.0,810.0,820.0,830.0,840.0,58.0,8.0,0.1,0.0,0.9,5.2,-3.7,1.8,1,1.0,1.0,1.0,1.0,85.0
2023-05-12 17:27:12.657,-1.363,0.162,0.257,0.460,-0.896,-0.089,-0.154,0.004,-0.643,0.258,0.268,0.795,-0.433,0.101,0.057,0.302,-0.755,-0.187,-0.131,0.003,800.0,810.0,820.0,830.0,840.0,58.0,8.0,0.1,0.0,0.9,5.2,-3.7,1.8,1,1.0,1.0,1.0,1.0,85.0
2023-05-12 17:27:12.758,-1.327,0.164,0.134,0.487,-0.901,-0.103,-0.155,0.027,-0.645,0.258,0.345,0.844,-0.409,0.128,0.020,0.345,-0.762,-0.192,-0.131,0.014,800.0,810.0,820.0,830.0,840.0,58.0,8.0,0.1,0.0,0.9,5.2,-3.7,1.8,1,1.0,1.0,1.0,1.0,85.0
2023-05-12 17:27:12.868,-1.305,0.192,0.108,0.542,-0.931,-0.123,-0.123,0.056,-0.645,0.258,0.374,0.859,-0.421,0.136,0.006,0.347,-0.763,-0.214,-0.141,0.054,800.0,810.0,820.0,830.0,840.0,58.0,8.0,0.1,0.0,0.9,5.2,-3.7,1.8,1,1.0,1.0,1.0,1.0,85.0
2023-05-12 17:27:13.085,-1.281,0.237,0.104,0.607,-0.955,-0.139,-0.085,0.063,-0.645,0.258,0.422,0.878,-0.475,0.174,0.019,0.341,-0.768,-0.214,-0.143,0.089,800.0,810.0,820.0,830.0,840.0,58.0,8.0,0.1,0.0,0.9,5.2,-3.7,1.8,1,1.0,1.0,1.0,1.0,85.0
2023-05-12 17:27:13.233,-1.273,0.332,0.081,0.729,-0.996,-0.138,-0.031,0.105,-0.645,0.258,0.437,0.889,-0.488,0.200,0.044,0.349,-0.776,-0.187,-0.128,0.143,800.0,810.0,820.0,830.0,840.0,58.0,8.0,0.1,0.0,0.9,5.2,-3.7,1.8,1,1.0,1.0,1.0,1.0,85.0
2023-05-12 17:27:13.373,-1.284,0.391,0.055,0.776,-1.006,-0.118,-0.034,0.152,-0.598,0.248,0.441,0.911,-0.485,0.222,0.072,0.369,-0.800,-0.051,-0.058,0.240,800.0,810.0,820.0,830.0,840.0,58.0,8.0,0.1,0.0,0.9,5.2,-3.7,1.8,1,1.0,1.0,1.0,1.0,85.0
2023-05-12 17:27:13.442,-1.297,0.446,0.016,0.815,-1.010,-0.091,-0.047,0.210,-0.576,0.248,0.441,0.927,-0.476,0.237,0.115,0.424,-0.810,0.018,-0.027,0.274,800.0,810.0,820.0,830.0,840.0,58.0,8.0,0.1,0.0,0.9,5.2,-3.7,1.8,1,1.0,1.0,1.0,1.0,85.0
2023-05-12 17:27:13.556,-1.289,0.436,0.012,0.812,-1.012,-0.025,-0.041,0.330,-0.609,0.249,0.441,0.934,-0.477,0.237,0.128,0.445,-0.826,0.095,0.012,0.333,800.0,810.0,820.0,830.0,840.0,58.0,8.0,0.1,0.0,0.9,5.2,-3.7,1.8,1,1.0,1.0,1.0,1.0,85.0
2023-05-12 17:27:13.809,-1.282,0.425,0.010,0.825,-1.026,0.015,-0.021,0.348,-0.643,0.247,0.455,0.934,-0.478,0.247,0.146,0.472,-0.830,0.109,0.029,0.344,800.0,810.0,820.0,830.0,840.0,58.0,8.0,0.1,0.0,0.9,5.2,-3.7,1.8,1,1.0,1.0,1.0,1.0,85.0
2023-05-12 17:27:13.880,-1.289,0.442,-0.001,0.856,-1.082,0.082,0.013,0.392,-0.643,0.226,0.464,0.934,-0.482,0.247,0.153,0.475,-0.830,0.112,0.042,0.360,800.0,810.0,820.0,830.0,840.0,58.0,8.0,0.1,0.0,0.9,5.2,-3.7,1.8,1,1.0,1.0,1.0,1.0,85.0
2023-05-12 17:27:14.096,-1.293,0.456,-0.010,0.881,-1.110,0.100,0.039,0.432,-0.652,0.051,0.476,0.939,-0.490,0.239,0.161,0.470,-0.813,0.111,0.051,0.445,800.0,810.0,820.0,830.0,840.0,58.0,8.0,0.1,0.0,0.9,5.2,-3.7,1.8,1,1.0,1.0,1.0,1.0,85.0
2023-05-12 17:27:14.168,-1.305,0.440,-0.043,0.951,-1.134,0.112,0.079,0.481,-0.674,0.043,0.476,0.941,-0.512,0.211,0.190,0.462,-0.797,0.110,0.048,0.477,800.0,810.0,820.0,830.0,840.0,58.0,8.0,0.1,0.0,0.9,5.2,-3.7,1.8,1,1.0,1.0,1.0,1.0,85.0
2023-05-12 17:27:14.304,-1.311,0.414,-0.068,0.980,-1.163,0.125,0.152,0.549,-0.661,0.074,0.473,0.918,-0.515,0.198,0.203,0.458,-0.755,0.112,0.051,0.491,800.0,810.0,820.0,830.0,840.0,58.0,8.0,0.1,0.0,0.9,5.2,-3.7,1.8,1,1.0,1.0,1.0,1.0,85.0
2023-05-12 17:27:14.497,-1.318,0.385,-0.087,0.997,-1.163,0.128,0.166,0.556,-0.539,0.152,0.464,0.875,-0.486,0.168,0.204,0.443,-0.743,0.113,0.058,0.487,800.0,810.0,820.0,830.0,840.0,58.0,8.0,0.1,0.0,0.9,5.2,-3.7,1.8,1,1.0,1.0,1.0,1.0,85.0
2023-05-12 17:27:14.601,-1.361,0.308,-0.094,0.993,-1.152,0.139,0.163,0.575,-0.476,0.176,0.454,0.875,-0.462,0.150,0.190,0.456,-0.742,0.112,0.062,0.475,800.0,810.0,820.0,830.0,840.0,58.0,8.0,0.1,0.0,0.9,5.2,-3.7,1.8,1,1.0,1.0,1.0,1.0,85.0
2023-05-12 17:27:14.801,-1.399,0.249,-0.092,0.984,-1.153,0.140,0.159,0.591,-0.476,0.180,0.431,0.851,-0.443,0.137,0.170,0.464,-0.767,0.071,0.026,0.469,800.0,810.0,820.0,830.0,840.0,58.0,8.0,0.1,0.0,0.9,5.2,-3.7,1.8,1,1.0,1.0,1.0,1.0,85.0
2023-05-12 17:27:14.934,-1.467,0.071,-0.092,0.943,-1.160,0.132,0.155,0.601,-0.476,0.180,0.424,0.798,-0.432,0.138,0.117,0.411,-0.777,0.025,-0.008,0.466,800.0,810.0,820.0,830.0,840.0,58.0,8.0,0.1,0.0,0.9,5.2,-3.7,1.8,1,1.0,1.0,1.0,1.0,85.0
2023-05-12 17:27:15.040,-1.474,0.019,-0.097,0.921,-1.178,0.082,0.133,0.559,-0.476,0.180,0.420,0.700,-0.431,0.145,0.093,0.356,-0.791,-0.068,-0.055,0.388,800.0,810.0,820.0,830.0,840.0,58.0,8.0,0.1,0.0,0.9,5.2,-3.7,1.8,1,1.0,1.0,1.0,1.0,85.0
2023-05-12 17:27:15.207,-1.464,0.022,-0.107,0.911,-1.187,0.040,0.114,0.542,-0.491,0.144,0.421,0.538,-0.427,0.139,0.064,0.278,-0.797,-0.088,-0.068,0.327,800.0,810.0,820.0,830.0,840.0,58.0,8.0,0.1,0.0,0.9,5.2,-3.7,1.8,1,1.0,1.0,1.0,1.0,85.0
2023-05-12 17:27:15.354,-1.446,0.025,-0.142,0.834,-1.162,-0.082,0.083,0.540,-0.502,0.097,0.377,0.602,-0.422,0.128,0.060,0.255,-0.799,-0.085,-0.081,0.300,800.0,810.0,820.0,830.0,840.0,58.0,8.0,0.1,0.0,0.9,5.2,-3.7,1.8,1,1.0,1.0,1.0,1.0,85.0
2023-05-12 17:27:15.551,-1.454,-0.019,-0.157,0.802,-1.116,-0.155,0.069,0.533,-0.513,0.062,0.290,0.609,-0.409,0.117,0.060,0.239,-0.761,-0.039,-0.100,0.257,800.0,810.0,820.0,830.0,840.0,58.0,8.0,0.1,0.0,0.9,5.2,-3.7,1.8,1,1.0,1.0,1.0,1.0,85.0
2023-05-12 17:27:15.607,-1.488,-0.105,-0.193,0.717,-1.070,-0.222,0.043,0.516,-0.513,0.075,0.230,0.609,-0.372,0.096,0.048,0.144,-0.723,-0.014,-0.101,0.145,800.0,810.0,820.0,830.0,840.0,58.0,8.0,0.1,0.0,0.9,5.2,-3.7,1.8,1,1.0,1.0,1.0,1.0,85.0
2023-05-12 17:27:15.731,-1.495,-0.120,-0.205,0.651,-1.038,-0.298,-0.072,0.426,-0.513,0.110,0.119,0.607,-0.362,0.097,0.042,0.098,-0.676,0.029,-0.101,0.016,800.0,810.0,820.0,830.0,840.0,58.0,8.0,0.1,0.0,0.9,5.2,-3.7,1.8,1,1.0,1.0,1.0,1.0,85.0
2023-05-12 17:27:15.908,-1.498,-0.129,-0.198,0.554,-1.054,-0.301,-0.143,0.384,-0.515,0.196,-0.138,0.587,-0.366,0.151,0.059,0.078,-0.684,0.048,-0.107,-0.015,800.0,810.0,820.0,830.0,840.0,58.0,8.0,0.1,0.0,0.9,5.2,-3.7,1.8,1,1.0,1.0,1.0,1.0,85.0
2023-05-12 17:27:15.978,-1.502,-0.146,-0.138,0.204,-1.103,-0.271,-0.226,0.365,-0.527,0.209,-0.153,0.595,-0.375,0.181,0.080,0.095,-0.697,0.066,-0.115,-0.042,800.0,810.0,820.0,830.0,840.0,58.0,8.0,0.1,0.0,0.9,5.2,-3.7,1.8,1,1.0,1.0,1.0,1.0,85.0
2023-05-12 17:27:16.227,-1.493,-0.145,-0.098,0.184,-1.123,-0.266,-0.243,0.351,-0.696,0.120,-0.142,0.611,-0.386,0.194,0.102,0.102,-0.670,0.098,-0.120,-0.063,800.0,810.0,820.0,830.0,840.0,58.0,8.0,0.1,0.0,0.9,5.2,-3.7,1.8,1,1.0,1.0,1.0,1.0,85.0
2023-05-12 17:27:16.343,-1.432,-0.127,-0.030,0.148,-1.136,-0.270,-0.255,0.343,-0.826,0.081,-0.139,0.613,-0.414,0.179,0.137,0.110,-0.628,0.113,-0.115,-0.056,800.0,810.0,820.0,830.0,840.0,58.0,8.0,0.1,0.0,0.9,5.2,-3.7,1.8,1,1.0,1.0,1.0,1.0,85.0
2023-05-12 17:27:16.430,-1.388,-0.124,-0.016,0.116,-1.145,-0.264,-0.270,0.333,-0.836,0.085,-0.102,0.591,-0.431,0.163,0.151,0.125,-0.556,0.129,-0.102,-0.034,800.0,810.0,820.0,830.0,840.0,58.0,8.0,0.1,0.0,0.9,5.2,-3.7,1.8,1,1.0,1.0,1.0,1.0,85.0
2023-05-12 17:27:16.624,-1.349,-0.138,-0.019,0.095,-1.149,-0.248,-0.272,0.309,-0.836,0.092,-0.033,0.570,-0.453,0.139,0.171,0.141,-0.535,0.130,-0.094,-0.023,800.0,810.0,820.0,830.0,840.0,58.0,8.0,0.1,0.0,0.9,5.2,-3.7,1.8,1,1.0,1.0,1.0,1.0,85.0
2023-05-12 17:27:16.760,-1.298,-0.234,-0.053,0.086,-1.184,-0.245,-0.296,0.236,-0.831,0.127,-0.006,0.570,-0.455,0.135,0.171,0.142,-0.519,0.131,-0.087,-0.018,800.0,810.0,820.0,830.0,840.0,58.0,8.0,0.1,0.0,0.9,5.2,-3.7,1.8,1,1.0,1.0,1.0,1.0,85.0
2023-05-12 17:27:16.924,-1.283,-0.287,-0.071,0.093,-1.230,-0.258,-0.315,0.206,-0.832,0.192,0.008,0.491,-0.458,0.135,0.162,0.142,-0.486,0.133,-0.072,-0.030,800.0,810.0,820.0,830.0,840.0,58.0,8.0,0.1,0.0,0.9,5.2,-3.7,1.8,1,1.0,1.0,1.0,1.0,85.0
2023-05-12 17:27:17.020,-1.264,-0.315,-0.101,0.105,-1.299,-0.264,-0.332,0.179,-0.861,0.206,0.008,0.373,-0.483,0.137,0.137,0.146,-0.478,0.131,-0.060,-0.041,800.0,810.0,820.0,830.0,840.0,58.0,8.0,0.1,0.0,0.9,5.2,-3.7,1.8,1,1.0,1.0,1.0,1.0,85.0
2023-05-12 17:27:17.198,-1.261,-0.299,-0.106,0.120,-1.422,-0.245,-0.360,0.130,-0.918,0.234,0.008,0.350,-0.498,0.140,0.134,0.148,-0.489,0.125,-0.040,-0.063,800.0,810.0,820.0,830.0,840.0,58.0,8.0,0.1,0.0,0.9,5.2,-3.7,1.8,1,1.0,1.0,1.0,1.0,85.0
2023-05-12 17:27:17.388,-1.263,-0.276,-0.106,0.140,-1.406,-0.235,-0.372,0.114,-0.958,0.280,0.013,0.349,-0.519,0.136,0.147,0.126,-0.495,0.126,-0.043,-0.065,800.0,810.0,820.0,830.0,840.0,58.0,8.0,0.1,0.0,0.9,5.2,-3.7,1.8,1,1.0,1.0,1.0,1.0,85.0
2023-05-12 17:27:17.459,-1.274,-0.227,-0.128,0.185,-1.275,-0.241,-0.401,0.116,-0.961,0.315,0.005,0.348,-0.533,0.121,0.152,0.105,-0.496,0.131,-0.050,-0.058,800.0,810.0,820.0,830.0,840.0,58.0,8.0,0.1,0.0,0.9,5.2,-3.7,1.8,1,1.0,1.0,1.0,1.0,85.0
2023-05-12 17:27:17.638,-1.280,-0.211,-0.151,0.199,-1.229,-0.249,-0.424,0.128,-0.991,0.325,-0.021,0.319,-0.547,0.107,0.152,0.091,-0.502,0.129,-0.051,-0.032,800.0,810.0,820.0,830.0,840.0,58.0,8.0,0.1,0.0,0.9,5.2,-3.7,1.8,1,1.0,1.0,1.0,1.0,85.0
2023-05-12 17:27:17.742,-1.306,-0.213,-0.233,0.211,-1.209,-0.246,-0.437,0.133,-0.992,0.329,0.019,0.309,-0.570,0.110,0.155,0.090,-0.519,0.116,-0.039,-0.028,800.0,810.0,820.0,830.0,840.0,58.0,8.0,0.1,0.0,0.9,5.2,-3.7,1.8,1,1.0,1.0,1.0,1.0,85.0
2023-05-12 17:27:17.880,-1.333,-0.226,-0.276,0.206,-1.223,-0.224,-0.401,0.093,-0.978,0.329,0.024,0.300,-0.575,0.115,0.161,0.097,-0.568,0.082,-0.009,-0.058,800.0,810.0,820.0,830.0,840.0,58.0,8.0,0.1,0.0,0.9,5.2,-3.7,1.8,1,1.0,1.0,1.0,1.0,85.0
2023-05-12 17:27:18.072,-1.371,-0.237,-0.308,0.194,-1.242,-0.231,-0.383,0.062,-0.961,0.329,0.024,0.416,-0.577,0.121,0.166,0.136,-0.580,0.074,0.001,-0.086,800.0,810.0,820.0,830.0,840.0,58.0,8.0,0.1,0.0,0.9,5.2,-3.7,1.8,1,1.0,1.0,1.0,1.0,85.0
2023-05-12 17:27:18.145,-1.434,-0.271,-0.317,0.167,-1.267,-0.284,-0.404,0.033,-0.936,0.329,0.035,0.442,-0.577,0.128,0.164,0.169,-0.579,0.070,0.006,-0.115,800.0,810.0,820.0,830.0,840.0,58.0,8.0,0.1,0.0,0.9,5.2,-3.7,1.8,1,1.0,1.0,1.0,1.0,85.0
2023-05-12 17:27:18.355,-1.436,-0.287,-0.305,0.159,-1.262,-0.297,-0.415,0.023,-0.884,0.333,0.078,0.444,-0.574,0.135,0.165,0.205,-0.580,0.050,0.000,-0.155,800.0,810.0,820.0,830.0,840.0,58.0,8.0,0.1,0.0,0.9,5.2,-3.7,1.8,1,1.0,1.0,1.0,1.0,85.0
2023-05-12 17:27:18.443,-1.400,-0.307,-0.274,0.152,-1.251,-0.294,-0.407,0.004,-0.865,0.326,0.087,0.444,-0.559,0.140,0.183,0.254,-0.588,0.029,-0.006,-0.160,800.0,810.0,820.0,830.0,840.0,58.0,8.0,0.1,0.0,0.9,5.2,-3.7,1.8,1,1.0,1.0,1.0,1.0,85.0
2023-05-12 17:27:18.604,-1.396,-0.319,-0.274,0.135,-1.253,-0.272,-0.348,-0.040,-0.823,0.328,0.092,0.444,-0.551,0.137,0.194,0.262,-0.592,-0.013,-0.022,-0.161,800.0,810.0,820.0,830.0,840.0,58.0,8.0,0.1,0.0,0.9,5.2,-3.7,1.8,1,1.0,1.0,1.0,1.0,85.0
2023-05-12 17:27:18.801,-1.401,-0.332,-0.296,0.098,-1.272,-0.273,-0.317,-0.050,-0.701,0.324,0.114,0.444,-0.541,0.114,0.185,0.254,-0.584,-0.025,-0.030,-0.165,800.0,810.0,820.0,830.0,840.0,58.0,8.0,0.1,0.0,0.9,5.2,-3.7,1.8,1,1.0,1.0,1.0,1.0,85.0
2023-05-12 17:27:18.889,-1.412,-0.343,-0.374,-0.034,-1.364,-0.299,-0.276,-0.065,-0.665,0.307,0.124,0.444,-0.536,0.094,0.166,0.247,-0.573,-0.030,-0.036,-0.174,800.0,810.0,820.0,830.0,840.0,58.0,8.0,0.1,0.0,0.9,5.2,-3.7,1.8,1,1.0,1.0,1.0,1.0,85.0
2023-05-12 17:27:19.060,-1.403,-0.338,-0.407,-0.096,-1.425,-0.315,-0.271,-0.091,-0.656,0.224,0.091,0.444,-0.533,0.076,0.150,0.239,-0.539,-0.024,-0.046,-0.207,800.0,810.0,820.0,830.0,840.0,58.0,8.0,0.1,0.0,0.9,5.2,-3.7,1.8,1,1.0,1.0,1.0,1.0,85.0
2023-05-12 17:27:19.192,-1.384,-0.309,-0.409,-0.120,-1.455,-0.331,-0.279,-0.123,-0.641,0.183,0.081,0.441,-0.531,0.071,0.137,0.217,-0.523,-0.010,-0.057,-0.230,800.0,810.0,820.0,830.0,840.0,58.0,8.0,0.1,0.0,0.9,5.2,-3.7,1.8,1,1.0,1.0,1.0,1.0,85.0
2023-05-12 17:27:19.285,-1.386,-0.296,-0.386,-0.091,-1.379,-0.382,-0.332,-0.115,-0.639,0.115,0.076,0.441,-0.528,0.078,0.129,0.199,-0.505,0.024,-0.089,-0.260,800.0,810.0,820.0,830.0,840.0,58.0,8.0,0.1,0.0,0.9,5.2,-3.7,1.8,1,1.0,1.0,1.0,1.0,85.0
2023-05-12 17:27:19.494,-1.382,-0.291,-0.371,-0.067,-1.330,-0.414,-0.364,-0.079,-0.639,-0.134,0.020,0.437,-0.511,0.081,0.103,0.152,-0.506,0.043,-0.101,-0.265,800.0,810.0,820.0,830.0,840.0,58.0,8.0,0.1,0.0,0.9,5.2,-3.7,1.8,1,1.0,1.0,1.0,1.0,85.0
2023-05-12 17:27:19.558,-1.344,-0.304,-0.371,-0.032,-1.287,-0.442,-0.374,-0.037,-0.639,-0.176,0.024,0.391,-0.501,0.074,0.092,0.128,-0.514,0.064,-0.109,-0.267,800.0,810.0,820.0,830.0,840.0,58.0,8.0,0.1,0.0,0.9,5.2,-3.7,1.8,1,1.0,1.0,1.0,1.0,85.0
2023-05-12 17:27:19.768,-1.338,-0.310,-0.383,-0.016,-1.280,-0.423,-0.355,-0.035,-0.608,-0.193,0.059,0.218,-0.495,0.064,0.083,0.107,-0.542,0.136,-0.123,-0.267,800.0,810.0,820.0,830.0,840.0,58.0,8.0,0.1,0.0,0.9,5.2,-3.7,1.8,1,1.0,1.0,1.0,1.0,85.0
2023-05-12 17:27:19.872,-1.388,-0.318,-0.400,-0.011,-1.273,-0.386,-0.340,-0.037,-0.575,-0.210,0.022,0.091,-0.499,0.056,0.046,0.077,-0.557,0.183,-0.125,-0.265,800.0,810.0,820.0,830.0,840.0,58.0,8.0,0.1,0.0,0.9,5.2,-3.7,1.8,1,1.0,1.0,1.0,1.0,85.0
2023-05-12 17:27:19.999,-1.409,-0.315,-0.405,-0.009,-1.244,-0.301,-0.354,-0.013,-0.558,-0.243,0.004,0.031,-0.507,0.058,0.016,0.066,-0.584,0.263,-0.127,-0.264,800.0,810.0,820.0,830.0,840.0,58.0,8.0,0.1,0.0,0.9,5.2,-3.7,1.8,1,1.0,1.0,1.0,1.0,85.0
2023-05-12 17:27:20.174,-1.400,-0.309,-0.405,0.003,-1.225,-0.272,-0.377,0.023,-0.553,-0.342,0.046,0.015,-0.529,0.069,-0.044,0.057,-0.589,0.289,-0.136,-0.269,800.0,810.0,820.0,830.0,840.0,58.0,8.0,0.1,0.0,0.9,5.2,-3.7,1.8,1,1.0,1.0,1.0,1.0,85.0
2023-05-12 17:27:20.276,-1.320,-0.315,-0.390,0.020,-1.207,-0.229,-0.413,0.087,-0.561,-0.370,0.046,0.015,-0.541,0.076,-0.068,0.063,-0.588,0.308,-0.148,-0.277,800.0,810.0,820.0,830.0,840.0,58.0,8.0,0.1,0.0,0.9,5.2,-3.7,1.8,1,1.0,1.0,1.0,1.0,85.0
2023-05-12 17:27:20.520,-1.287,-0.323,-0.377,0.016,-1.212,-0.212,-0.413,0.096,-0.611,-0.284,0.015,0.021,-0.548,0.085,-0.091,0.072,-0.592,0.321,-0.159,-0.286,800.0,810.0,820.0,830.0,840.0,58.0,8.0,0.1,0.0,0.9,5.2,-3.7,1.8,1,1.0,1.0,1.0,1.0,85.0
2023-05-12 17:27:20.580,-1.268,-0.266,-0.371,-0.030,-1.223,-0.201,-0.397,0.092,-0.616,-0.110,0.009,0.008,-0.542,0.097,-0.138,0.084,-0.599,0.320,-0.157,-0.283,800.0,810.0,820.0,830.0,840.0,58.0,8.0,0.1,0.0,0.9,5.2,-3.7,1.8,1,1.0,1.0,1.0,1.0,85.0
2023-05-12 17:27:20.684,-1.262,-0.193,-0.392,-0.060,-1.257,-0.193,-0.337,0.053,-0.616,0.016,0.012,-0.019,-0.528,0.095,-0.153,0.090,-0.586,0.327,-0.148,-0.264,800.0,810.0,820.0,830.0,840.0,58.0,8.0,0.1,0.0,0.9,5.2,-3.7,1.8,1,1.0,1.0,1.0,1.0,85.0
2023-05-12 17:27:20.892,-1.258,-0.123,-0.414,-0.078,-1.273,-0.188,-0.308,0.021,-0.611,0.087,0.012,-0.027,-0.499,0.093,-0.153,0.124,-0.573,0.340,-0.139,-0.249,800.0,810.0,820.0,830.0,840.0,58.0,8.0,0.1,0.0,0.9,5.2,-3.7,1.8,1,1.0,1.0,1.0,1.0,85.0
2023-05-12 17:27:21.037,-1.271,-0.052,-0.357,-0.034,-1.268,-0.166,-0.271,-0.015,-0.586,0.106,0.012,0.009,-0.491,0.101,-0.145,0.145,-0.560,0.354,-0.128,-0.230,800.0,810.0,820.0,830.0,840.0,58.0,8.0,0.1,0.0,0.9,5.2,-3.7,1.8,1,1.0,1.0,1.0,1.0,85.0
2023-05-12 17:27:21.235,-1.289,-0.044,-0.284,-0.003,-1.239,-0.153,-0.261,-0.012,-0.476,0.181,0.011,0.190,-0.491,0.108,-0.134,0.156,-0.536,0.349,-0.101,-0.195,800.0,810.0,820.0,830.0,840.0,58.0,8.0,0.1,0.0,0.9,5.2,-3.7,1.8,1,1.0,1.0,1.0,1.0,85.0
2023-05-12 17:27:21.285,-1.309,-0.030,-0.191,0.014,-1.192,-0.145,-0.259,-0.007,-0.456,0.209,-0.006,0.223,-0.498,0.114,-0.086,0.141,-0.531,0.329,-0.091,-0.187,800.0,810.0,820.0,830.0,840.0,58.0,8.0,0.1,0.0,0.9,5.2,-3.7,1.8,1,1.0,1.0,1.0,1.0,85.0
2023-05-12 17:27:21.398,-1.273,-0.015,-0.181,0.013,-1.090,-0.159,-0.267,-0.007,-0.460,0.214,-0.059,0.239,-0.494,0.126,-0.056,0.129,-0.540,0.279,-0.090,-0.197,800.0,810.0,820.0,830.0,840.0,58.0,8.0,0.1,0.0,0.9,5.2,-3.7,1.8,1,1.0,1.0,1.0,1.0,85.0
2023-05-12 17:27:21.622,-1.220,0.010,-0.184,0.003,-1.052,-0.182,-0.267,-0.018,-0.491,0.214,-0.170,0.274,-0.477,0.170,-0.004,0.126,-0.555,0.260,-0.096,-0.203,800.0,810.0,820.0,830.0,840.0,58.0,8.0,0.1,0.0,0.9,5.2,-3.7,1.8,1,1.0,1.0,1.0,1.0,85.0
2023-05-12 17:27:21.719,-1.148,0.085,-0.203,-0.027,-0.994,-0.234,-0.250,-0.087,-0.513,0.214,-0.212,0.288,-0.472,0.185,0.015,0.132,-0.581,0.245,-0.095,-0.199,800.0,810.0,820.0,830.0,840.0,58.0,8.0,0.1,0.0,0.9,5.2,-3.7,1.8,1,1.0,1.0,1.0,1.0,85.0
2023-05-12 17:27:21.937,-1.133,0.119,-0.214,-0.026,-0.971,-0.254,-0.242,-0.125,-0.548,0.215,-0.280,0.366,-0.470,0.191,0.029,0.141,-0.647,0.232,-0.068,-0.158,800.0,810.0,820.0,830.0,840.0,58.0,8.0,0.1,0.0,0.9,5.2,-3.7,1.8,1,1.0,1.0,1.0,1.0,85.0
2023-05-12 17:27:22.044,-1.066,0.135,-0.242,0.021,-0.950,-0.268,-0.240,-0.137,-0.551,0.215,-0.236,0.381,-0.467,0.181,0.051,0.162,-0.671,0.241,-0.056,-0.141,800.0,810.0,820.0,830.0,840.0,58.0,8.0,0.1,0.0,0.9,5.2,-3.7,1.8,1,1.0,1.0,1.0,1.0,85.0
2023-05-12 17:27:22.098,-1.023,0.113,-0.251,0.046,-0.910,-0.274,-0.256,-0.071,-0.551,0.210,-0.181,0.383,-0.467,0.175,0.063,0.170,-0.715,0.282,-0.054,-0.143,800.0,810.0,820.0,830.0,840.0,58.0,8.0,0.1,0.0,0.9,5.2,-3.7,1.8,1,1.0,1.0,1.0,1.0,85.0
2023-05-12 17:27:22.344,-0.996,0.075,-0.251,0.064,-0.905,-0.270,-0.266,-0.021,-0.525,0.188,-0.132,0.386,-0.483,0.157,0.075,0.170,-0.743,0.302,-0.058,-0.158,800.0,810.0,820.0,830.0,840.0,58.0,8.0,0.1,0.0,0.9,5.2,-3.7,1.8,1,1.0,1.0,1.0,1.0,85.0
2023-05-12 17:27:22.441,-0.970,-0.002,-0.253,0.056,-0.930,-0.251,-0.276,0.062,-0.487,0.141,-0.153,0.386,-0.492,0.146,0.075,0.161,-0.766,0.320,-0.062,-0.171,800.0,810.0,820.0,830.0,840.0,58.0,8.0,0.1,0.0,0.9,5.2,-3.7,1.8,1,1.0,1.0,1.0,1.0,85.0
2023-05-12 17:27:22.636,-0.961,-0.016,-0.283,0.029,-0.949,-0.242,-0.281,0.087,-0.486,0.020,-0.149,0.377,-0.497,0.137,0.072,0.149,-0.792,0.360,-0.068,-0.172,800.0,810.0,820.0,830.0,840.0,58.0,8.0,0.1,0.0,0.9,5.2,-3.7,1.8,1,1.0,1.0,1.0,1.0,85.0
2023-05-12 17:27:22.739,-0.942,-0.009,-0.363,-0.018,-0.972,-0.241,-0.290,0.097,-0.509,-0.024,-0.147,0.358,-0.499,0.138,0.051,0.135,-0.800,0.387,-0.068,-0.158,800.0,810.0,820.0,830.0,840.0,58.0,8.0,0.1,0.0,0.9,5.2,-3.7,1.8,1,1.0,1.0,1.0,1.0,85.0
2023-05-12 17:27:22.827,-0.935,-0.010,-0.371,-0.021,-1.053,-0.254,-0.305,0.083,-0.559,-0.028,-0.147,0.337,-0.496,0.135,0.029,0.132,-0.793,0.439,-0.055,-0.114,800.0,810.0,820.0,830.0,840.0,58.0,8.0,0.1,0.0,0.9,5.2,-3.7,1.8,1,1.0,1.0,1.0,1.0,85.0
2023-05-12 17:27:23.068,-0.946,-0.020,-0.349,-0.019,-1.104,-0.252,-0.310,0.068,-0.675,0.023,-0.153,0.294,-0.496,0.097,-0.011,0.112,-0.769,0.459,-0.043,-0.091,800.0,810.0,820.0,830.0,840.0,58.0,8.0,0.1,0.0,0.9,5.2,-3.7,1.8,1,1.0,1.0,1.0,1.0,85.0
2023-05-12 17:27:23.114,-1.003,-0.061,-0.277,-0.018,-1.193,-0.226,-0.332,0.040,-0.657,0.056,-0.167,0.258,-0.503,0.076,-0.018,0.091,-0.734,0.473,-0.031,-0.072,800.0,810.0,820.0,830.0,840.0,58.0,8.0,0.1,0.0,0.9,5.2,-3.7,1.8,1,1.0,1.0,1.0,1.0,85.0
2023-05-12 17:27:23.330,-1.032,-0.088,-0.240,-0.014,-1.221,-0.219,-0.347,0.040,-0.610,0.062,-0.177,0.286,-0.511,0.071,-0.013,0.066,-0.664,0.488,-0.024,-0.064,800.0,810.0,820.0,830.0,840.0,58.0,8.0,0.1,0.0,0.9,5.2,-3.7,1.8,1,1.0,1.0,1.0,1.0,85.0
2023-05-12 17:27:23.482,-1.089,-0.117,-0.189,-0.012,-1.239,-0.220,-0.364,0.050,-0.608,0.062,-0.180,0.330,-0.509,0.083,0.027,0.016,-0.646,0.491,-0.034,-0.083,800.0,810.0,820.0,830.0,840.0,58.0,8.0,0.1,0.0,0.9,5.2,-3.7,1.8,1,1.0,1.0,1.0,1.0,85.0
2023-05-12 17:27:23.572,-1.141,-0.109,-0.173,-0.021,-1.284,-0.242,-0.382,0.057,-0.620,0.062,-0.177,0.348,-0.503,0.077,0.044,0.003,-0.636,0.489,-0.064,-0.140,800.0,810.0,820.0,830.0,840.0,58.0,8.0,0.1,0.0,0.9,5.2,-3.7,1.8,1,1.0,1.0,1.0,1.0,85.0
2023-05-12 17:27:23.736,-1.207,-0.101,-0.161,-0.036,-1.296,-0.256,-0.375,0.041,-0.567,0.060,-0.066,0.377,-0.496,0.050,0.045,0.030,-0.631,0.482,-0.072,-0.154,800.0,810.0,820.0,830.0,840.0,58.0,8.0,0.1,0.0,0.9,5.2,-3.7,1.8,1,1.0,1.0,1.0,1.0,85.0
2023-05-12 17:27:23.876,-1.278,-0.108,-0.161,-0.059,-1.222,-0.271,-0.347,-0.023,-0.526,0.060,0.021,0.395,-0.492,0.043,0.041,0.063,-0.618,0.470,-0.079,-0.153,800.0,810.0,820.0,830.0,840.0,58.0,8.0,0.1,0.0,0.9,5.2,-3.7,1.8,1,1.0,1.0,1.0,1.0,85.0
2023-05-12 17:27:24.052,-1.273,-0.118,-0.172,-0.051,-1.157,-0.277,-0.333,-0.073,-0.531,0.044,0.042,0.408,-0.485,0.042,0.043,0.100,-0.581,0.440,-0.104,-0.131,800.0,810.0,820.0,830.0,840.0,58.0,8.0,0.1,0.0,0.9,5.2,-3.7,1.8,1,1.0,1.0,1.0,1.0,85.0
2023-05-12 17:27:24.149,-1.201,-0.143,-0.202,-0.019,-1.094,-0.285,-0.320,-0.131,-0.583,0.033,0.048,0.408,-0.463,0.051,0.080,0.158,-0.569,0.428,-0.121,-0.126,800.0,810.0,820.0,830.0,840.0,58.0,8.0,0.1,0.0,0.9,5.2,-3.7,1.8,1,1.0,1.0,1.0,1.0,85.0
2023-05-12 17:27:24.310,-1.150,-0.159,-0.228,-0.009,-1.007,-0.280,-0.292,-0.198,-0.630,0.033,0.053,0.408,-0.454,0.067,0.105,0.173,-0.572,0.414,-0.138,-0.131,800.0,810.0,820.0,830.0,840.0,58.0,8.0,0.1,0.0,0.9,5.2,-3.7,1.8,1,1.0,1.0,1.0,1.0,85.0
2023-05-12 17:27:24.465,-1.103,-0.168,-0.263,-0.011,-0.986,-0.257,-0.265,-0.165,-0.648,0.038,0.079,0.491,-0.453,0.112,0.129,0.194,-0.583,0.406,-0.141,-0.135,800.0,810.0,820.0,830.0,840.0,58.0,8.0,0.1,0.0,0.9,5.2,-3.7,1.8,1,1.0,1.0,1.0,1.0,85.0
2023-05-12 17:27:24.597,-1.019,-0.189,-0.348,-0.012,-0.961,-0.209,-0.176,-0.068,-0.648,0.082,0.100,0.492,-0.457,0.122,0.128,0.211,-0.601,0.399,-0.145,-0.145,800.0,810.0,820.0,830.0,840.0,58.0,8.0,0.1,0.0,0.9,5.2,-3.7,1.8,1,1.0,1.0,1.0,1.0,85.0
2023-05-12 17:27:24.817,-0.997,-0.217,-0.395,0.006,-0.944,-0.202,-0.139,-0.049,-0.602,0.059,0.135,0.492,-0.459,0.120,0.125,0.232,-0.650,0.410,-0.146,-0.181,800.0,810.0,820.0,830.0,840.0,58.0,8.0,0.1,0.0,0.9,5.2,-3.7,1.8,1,1.0,1.0,1.0,1.0,85.0
2023-05-12 17:27:24.872,-1.000,-0.315,-0.494,0.066,-0.922,-0.203,-0.118,-0.051,-0.602,0.059,0.139,0.492,-0.454,0.099,0.110,0.265,-0.667,0.423,-0.134,-0.198,800.0,810.0,820.0,830.0,840.0,58.0,8.0,0.1,0.0,0.9,5.2,-3.7,1.8,1,1.0,1.0,1.0,1.0,85.0
2023-05-12 17:27:25.029,-1.010,-0.357,-0.512,0.096,-0.876,-0.202,-0.105,-0.080,-0.611,0.059,0.148,0.493,-0.449,0.098,0.097,0.274,-0.670,0.443,-0.101,-0.210,800.0,810.0,820.0,830.0,840.0,58.0,8.0,0.1,0.0,0.9,5.2,-3.7,1.8,1,1.0,1.0,1.0,1.0,85.0
2023-05-12 17:27:25.132,-1.016,-0.388,-0.512,0.117,-0.859,-0.193,-0.107,-0.095,-0.630,0.059,0.149,0.493,-0.435,0.127,0.075,0.282,-0.666,0.455,-0.088,-0.210,800.0,810.0,820.0,830.0,840.0,58.0,8.0,0.1,0.0,0.9,5.2,-3.7,1.8,1,1.0,1.0,1.0,1.0,85.0
2023-05-12 17:27:25.290,-1.017,-0.388,-0.511,0.139,-0.844,-0.168,-0.122,-0.121,-0.625,0.062,0.149,0.491,-0.427,0.155,0.068,0.283,-0.664,0.465,-0.077,-0.211,800.0,810.0,820.0,830.0,840.0,58.0,8.0,0.1,0.0,0.9,5.2,-3.7,1.8,1,1.0,1.0,1.0,1.0,85.0
2023-05-12 17:27:25.453,-1.015,-0.369,-0.495,0.142,-0.847,-0.152,-0.138,-0.129,-0.622,0.067,0.096,0.489,-0.424,0.194,0.061,0.282,-0.687,0.477,-0.064,-0.208,800.0,810.0,820.0,830.0,840.0,58.0,8.0,0.1,0.0,0.9,5.2,-3.7,1.8,1,1.0,1.0,1.0,1.0,85.0
2023-05-12 17:27:25.568,-1.039,-0.326,-0.408,0.124,-0.864,-0.129,-0.160,-0.125,-0.626,0.060,0.091,0.485,-0.448,0.279,0.034,0.264,-0.703,0.475,-0.060,-0.203,800.0,810.0,820.0,830.0,840.0,58.0,8.0,0.1,0.0,0.9,5.2,-3.7,1.8,1,1.0,1.0,1.0,1.0,85.0
2023-05-12 17:27:25.656,-1.072,-0.293,-0.349,0.110,-0.929,-0.057,-0.194,-0.090,-0.621,0.070,0.119,0.483,-0.471,0.307,0.019,0.252,-0.690,0.450,-0.067,-0.200,800.0,810.0,820.0,830.0,840.0,58.0,8.0,0.1,0.0,0.9,5.2,-3.7,1.8,1,1.0,1.0,1.0,1.0,85.0
2023-05-12 17:27:25.892,-1.117,-0.260,-0.286,0.097,-0.957,-0.030,-0.203,-0.082,-0.562,0.097,0.155,0.475,-0.526,0.330,0.012,0.248,-0.660,0.433,-0.079,-0.203,800.0,810.0,820.0,830.0,840.0,58.0,8.0,0.1,0.0,0.9,5.2,-3.7,1.8,1,1.0,1.0,1.0,1.0,85.0
2023-05-12 17:27:26.012,-1.236,-0.236,-0.154,0.077,-0.985,-0.038,-0.255,-0.103,-0.561,0.098,0.144,0.419,-0.549,0.333,0.017,0.250,-0.628,0.419,-0.093,-0.204,800.0,810.0,820.0,830.0,840.0,58.0,8.0,0.1,0.0,0.9,5.2,-3.7,1.8,1,1.0,1.0,1.0,1.0,85.0
2023-05-12 17:27:26.189,-1.301,-0.241,-0.109,0.059,-1.001,-0.060,-0.305,-0.107,-0.559,0.063,0.071,0.210,-0.563,0.336,0.020,0.246,-0.578,0.391,-0.127,-0.192,800.0,810.0,820.0,830.0,840.0,58.0,8.0,0.1,0.0,0.9,5.2,-3.7,1.8,1,1.0,1.0,1.0,1.0,85.0
2023-05-12 17:27:26.247,-1.360,-0.243,-0.064,0.010,-1.029,-0.077,-0.344,-0.075,-0.551,0.002,0.045,0.292,-0.563,0.336,0.020,0.227,-0.570,0.372,-0.152,-0.177,800.0,810.0,820.0,830.0,840.0,58.0,8.0,0.1,0.0,0.9,5.2,-3.7,1.8,1,1.0,1.0,1.0,1.0,85.0
2023-05-12 17:27:26.349,-1.346,-0.245,-0.041,-0.003,-1.110,-0.086,-0.308,0.069,-0.571,-0.011,0.048,0.356,-0.562,0.335,0.020,0.222,-0.575,0.341,-0.196,-0.142,800.0,810.0,820.0,830.0,840.0,58.0,8.0,0.1,0.0,0.9,5.2,-3.7,1.8,1,1.0,1.0,1.0,1.0,85.0
2023-05-12 17:27:26.566,-1.330,-0.249,0.003,-0.005,-1.146,-0.086,-0.265,0.127,-0.619,0.030,0.146,0.430,-0.569,0.336,0.041,0.237,-0.580,0.330,-0.196,-0.127,800.0,810.0,820.0,830.0,840.0,58.0,8.0,0.1,0.0,0.9,5.2,-3.7,1.8,1,1.0,1.0,1.0,1.0,85.0
2023-05-12 17:27:26.689,-1.314,-0.259,0.130,0.066,-1.228,-0.095,-0.224,0.176,-0.617,0.037,0.208,0.433,-0.576,0.334,0.065,0.249,-0.587,0.319,-0.177,-0.108,800.0,810.0,820.0,830.0,840.0,58.0,8.0,0.1,0.0,0.9,5.2,-3.7,1.8,1,1.0,1.0,1.0,1.0,85.0
2023-05-12 17:27:26.872,-1.301,-0.256,0.205,0.146,-1.288,-0.100,-0.209,0.187,-0.621,0.038,0.252,0.468,-0.586,0.325,0.090,0.255,-0.617,0.313,-0.121,-0.050,800.0,810.0,820.0,830.0,840.0,58.0,8.0,0.1,0.0,0.9,5.2,-3.7,1.8,1,1.0,1.0,1.0,1.0,85.0
2023-05-12 17:27:26.971,-1.268,-0.207,0.372,0.306,-1.347,-0.096,-0.192,0.194,-0.618,0.048,0.252,0.468,-0.607,0.276,0.128,0.233,-0.639,0.321,-0.100,-0.030,800.0,810.0,820.0,830.0,840.0,58.0,8.0,0.1,0.0,0.9,5.2,-3.7,1.8,1,1.0,1.0,1.0,1.0,85.0
2023-05-12 17:27:27.126,-1.248,-0.179,0.431,0.350,-1.370,-0.092,-0.174,0.186,-0.618,0.048,0.252,0.461,-0.611,0.246,0.142,0.214,-0.691,0.356,-0.084,-0.035,800.0,810.0,820.0,830.0,840.0,58.0,8.0,0.1,0.0,0.9,5.2,-3.7,1.8,1,1.0,1.0,1.0,1.0,85.0
2023-05-12 17:27:27.333,-1.233,-0.177,0.462,0.370,-1.345,-0.115,-0.182,0.176,-0.618,0.042,0.241,0.456,-0.600,0.199,0.150,0.175,-0.723,0.386,-0.084,-0.051,800.0,810.0,820.0,830.0,840.0,58.0,8.0,0.1,0.0,0.9,5.2,-3.7,1.8,1,1.0,1.0,1.0,1.0,85.0
2023-05-12 17:27:27.398,-1.227,-0.218,0.457,0.387,-1.294,-0.174,-0.206,0.159,-0.618,0.037,0.222,0.463,-0.588,0.180,0.145,0.156,-0.755,0.415,-0.086,-0.067,800.0,810.0,820.0,830.0,840.0,58.0,8.0,0.1,0.0,0.9,5.2,-3.7,1.8,1,1.0,1.0,1.0,1.0,85.0
2023-05-12 17:27:27.566,-1.226,-0.227,0.442,0.392,-1.266,-0.184,-0.206,0.150,-0.631,0.031,0.241,0.481,-0.575,0.170,0.143,0.141,-0.798,0.442,-0.087,-0.087,800.0,810.0,820.0,830.0,840.0,58.0,8.0,0.1,0.0,0.9,5.2,-3.7,1.8,1,1.0,1.0,1.0,1.0,85.0
2023-05-12 17:27:27.699,-1.208,-0.214,0.423,0.392,-1.230,-0.187,-0.197,0.140,-0.621,0.009,0.250,0.500,-0.549,0.180,0.150,0.130,-0.806,0.445,-0.079,-0.089,800.0,810.0,820.0,830.0,840.0,58.0,8.0,0.1,0.0,0.9,5.2,-3.7,1.8,1,1.0,1.0,1.0,1.0,85.0
2023-05-12 17:27:27.801,-1.186,-0.197,0.420,0.383,-1.144,-0.186,-0.205,0.082,-0.606,0.016,0.255,0.506,-0.539,0.189,0.154,0.130,-0.806,0.452,-0.050,-0.087,800.0,810.0,820.0,830.0,840.0,58.0,8.0,0.1,0.0,0.9,5.2,-3.7,1.8,1,1.0,1.0,1.0,1.0,85.0
2023-05-12 17:27:28.019,-1.169,-0.163,0.415,0.364,-1.111,-0.179,-0.235,0.027,-0.602,0.026,0.253,0.506,-0.512,0.202,0.155,0.115,-0.808,0.453,-0.035,-0.086,800.0,810.0,820.0,830.0,840.0,58.0,8.0,0.1,0.0,0.9,5.2,-3.7,1.8,1,1.0,1.0,1.0,1.0,85.0
2023-05-12 17:27:28.094,-1.143,-0.072,0.374,0.320,-1.068,-0.148,-0.302,-0.057,-0.606,0.026,0.253,0.485,-0.486,0.216,0.148,0.093,-0.814,0.452,-0.023,-0.087,800.0,810.0,820.0,830.0,840.0,58.0,8.0,0.1,0.0,0.9,5.2,-3.7,1.8,1,1.0,1.0,1.0,1.0,85.0
2023-05-12 17:27:28.316,-1.125,-0.040,0.337,0.288,-1.045,-0.124,-0.313,-0.051,-0.606,-0.015,0.233,0.465,-0.457,0.233,0.134,0.065,-0.820,0.441,-0.017,-0.117,800.0,810.0,820.0,830.0,840.0,58.0,8.0,0.1,0.0,0.9,5.2,-3.7,1.8,1,1.0,1.0,1.0,1.0,85.0
2023-05-12 17:27:28.412,-1.070,-0.049,0.188,0.148,-1.004,-0.104,-0.314,-0.030,-0.606,-0.023,0.191,0.449,-0.418,0.255,0.102,0.031,-0.811,0.428,-0.027,-0.146,800.0,810.0,820.0,830.0,840.0,58.0,8.0,0.1,0.0,0.9,5.2,-3.7,1.8,1,1.0,1.0,1.0,1.0,85.0
2023-05-12 17:27:28.511,-1.042,-0.088,0.040,0.048,-0.879,-0.103,-0.304,0.008,-0.616,-0.037,0.154,0.435,-0.411,0.253,0.094,0.032,-0.775,0.394,-0.048,-0.192,800.0,810.0,820.0,830.0,840.0,58.0,8.0,0.1,0.0,0.9,5.2,-3.7,1.8,1,1.0,1.0,1.0,1.0,85.0
2023-05-12 17:27:28.735,-1.026,-0.131,-0.153,-0.015,-0.831,-0.112,-0.301,0.016,-0.541,-0.116,0.157,0.497,-0.413,0.231,0.101,0.052,-0.757,0.376,-0.045,-0.194,800.0,810.0,820.0,830.0,840.0,58.0,8.0,0.1,0.0,0.9,5.2,-3.7,1.8,1,1.0,1.0,1.0,1.0,85.0
2023-05-12 17:27:28.796,-1.033,-0.163,-0.435,0.047,-0.783,-0.127,-0.295,0.007,-0.502,-0.121,0.157,0.538,-0.419,0.222,0.113,0.066,-0.745,0.361,-0.029,-0.179,800.0,810.0,820.0,830.0,840.0,58.0,8.0,0.1,0.0,0.9,5.2,-3.7,1.8,1,1.0,1.0,1.0,1.0,85.0
2023-05-12 17:27:29.070,-1.042,-0.165,-0.426,0.105,-0.772,-0.138,-0.290,-0.002,-0.468,-0.089,0.157,0.549,-0.425,0.221,0.125,0.088,-0.746,0.362,0.041,-0.128,800.0,810.0,820.0,830.0,840.0,58.0,8.0,0.1,0.0,0.9,5.2,-3.7,1.8,1,1.0,1.0,1.0,1.0,85.0
2023-05-12 17:27:29.114,-1.035,-0.162,-0.312,0.199,-0.770,-0.136,-0.287,-0.011,-0.468,-0.044,0.145,0.549,-0.444,0.225,0.157,0.139,-0.758,0.380,0.087,-0.112,800.0,810.0,820.0,830.0,840.0,58.0,8.0,0.1,0.0,0.9,5.2,-3.7,1.8,1,1.0,1.0,1.0,1.0,85.0
2023-05-12 17:27:29.211,-1.015,-0.146,-0.252,0.226,-0.780,-0.054,-0.303,-0.024,-0.471,-0.014,0.125,0.548,-0.456,0.229,0.176,0.154,-0.772,0.420,0.147,-0.111,800.0,810.0,820.0,830.0,840.0,58.0,8.0,0.1,0.0,0.9,5.2,-3.7,1.8,1,1.0,1.0,1.0,1.0,85.0
2023-05-12 17:27:29.419,-0.995,-0.119,-0.200,0.240,-0.784,-0.007,-0.320,-0.031,-0.499,-0.044,0.051,0.541,-0.479,0.245,0.199,0.155,-0.770,0.432,0.155,-0.120,800.0,810.0,820.0,830.0,840.0,58.0,8.0,0.1,0.0,0.9,5.2,-3.7,1.8,1,1.0,1.0,1.0,1.0,85.0
2023-05-12 17:27:29.575,-0.976,-0.105,-0.123,0.246,-0.792,0.026,-0.349,-0.048,-0.499,-0.049,0.044,0.541,-0.492,0.250,0.206,0.151,-0.768,0.442,0.152,-0.129,800.0,810.0,820.0,830.0,840.0,58.0,8.0,0.1,0.0,0.9,5.2,-3.7,1.8,1,1.0,1.0,1.0,1.0,85.0
2023-05-12 17:27:29.726,-0.977,-0.136,-0.089,0.238,-0.798,0.017,-0.361,-0.061,-0.499,-0.032,0.043,0.541,-0.514,0.247,0.220,0.147,-0.763,0.474,0.142,-0.143,800.0,810.0,820.0,830.0,840.0,58.0,8.0,0.1,0.0,0.9,5.2,-3.7,1.8,1,1.0,1.0,1.0,1.0,85.0
2023-05-12 17:27:29.873,-0.993,-0.199,-0.030,0.229,-0.806,0.004,-0.379,-0.086,-0.488,-0.030,0.014,0.538,-0.577,0.223,0.277,0.145,-0.754,0.494,0.142,-0.145,800.0,810.0,820.0,830.0,840.0,58.0,8.0,0.1,0.0,0.9,5.2,-3.7,1.8,1,1.0,1.0,1.0,1.0,85.0
2023-05-12 17:27:29.927,-1.003,-0.195,-0.000,0.242,-0.870,-0.026,-0.394,-0.147,-0.480,-0.029,-0.028,0.507,-0.590,0.213,0.300,0.145,-0.718,0.525,0.163,-0.139,800.0,810.0,820.0,830.0,840.0,58.0,8.0,0.1,0.0,0.9,5.2,-3.7,1.8,1,1.0,1.0,1.0,1.0,85.0
2023-05-12 17:27:30.203,-1.008,-0.182,0.026,0.264,-0.931,-0.041,-0.356,-0.145,-0.480,-0.047,-0.007,0.392,-0.548,0.219,0.305,0.175,-0.700,0.531,0.175,-0.133,800.0,810.0,820.0,830.0,840.0,58.0,8.0,0.1,0.0,0.9,5.2,-3.7,1.8,1,1.0,1.0,1.0,1.0,85.0
2023-05-12 17:27:30.280,-1.014,-0.160,0.052,0.278,-1.039,-0.048,-0.268,-0.075,-0.480,-0.048,-0.007,0.401,-0.516,0.235,0.290,0.204,-0.691,0.530,0.181,-0.130,800.0,810.0,820.0,830.0,840.0,58.0,8.0,0.1,0.0,0.9,5.2,-3.7,1.8,1,1.0,1.0,1.0,1.0,85.0
2023-05-12 17:27:30.455,-1.019,-0.150,0.045,0.251,-1.070,-0.034,-0.254,-0.042,-0.518,-0.016,-0.028,0.394,-0.491,0.252,0.274,0.227,-0.692,0.503,0.160,-0.148,800.0,810.0,820.0,830.0,840.0,58.0,8.0,0.1,0.0,0.9,5.2,-3.7,1.8,1,1.0,1.0,1.0,1.0,85.0
2023-05-12 17:27:30.509,-1.028,-0.133,0.022,0.169,-1.094,-0.015,-0.254,-0.020,-0.580,-0.007,-0.057,0.338,-0.464,0.265,0.249,0.224,-0.691,0.484,0.130,-0.159,800.0,810.0,820.0,830.0,840.0,58.0,8.0,0.1,0.0,0.9,5.2,-3.7,1.8,1,1.0,1.0,1.0,1.0,85.0
2023-05-12 17:27:30.660,-1.040,-0.131,0.008,0.136,-1.129,-0.004,-0.245,-0.002,-0.637,-0.007,-0.092,0.316,-0.461,0.258,0.234,0.211,-0.685,0.448,0.055,-0.167,800.0,810.0,820.0,830.0,840.0,58.0,8.0,0.1,0.0,0.9,5.2,-3.7,1.8,1,1.0,1.0,1.0,1.0,85.0
2023-05-12 17:27:30.848,-1.066,-0.145,-0.017,0.118,-1.147,-0.019,-0.210,0.017,-0.687,-0.007,0.046,0.316,-0.461,0.246,0.205,0.233,-0.671,0.436,0.036,-0.174,800.0,810.0,820.0,830.0,840.0,58.0,8.0,0.1,0.0,0.9,5.2,-3.7,1.8,1,1.0,1.0,1.0,1.0,85.0
2023-05-12 17:27:30.955,-1.153,-0.239,-0.094,0.125,-1.173,-0.054,-0.067,0.168,-0.732,-0.007,0.175,0.344,-0.460,0.249,0.197,0.267,-0.644,0.433,0.041,-0.183,800.0,810.0,820.0,830.0,840.0,58.0,8.0,0.1,0.0,0.9,5.2,-3.7,1.8,1,1.0,1.0,1.0,1.0,85.0
2023-05-12 17:27:31.157,-1.188,-0.288,-0.106,0.143,-1.165,-0.056,0.008,0.266,-0.735,0.096,0.240,0.442,-0.456,0.253,0.191,0.299,-0.585,0.435,0.085,-0.188,800.0,810.0,820.0,830.0,840.0,58.0,8.0,0.1,0.0,0.9,5.2,-3.7,1.8,1,1.0,1.0,1.0,1.0,85.0
2023-05-12 17:27:31.270,-1.236,-0.312,0.031,0.186,-1.148,-0.056,0.059,0.337,-0.754,0.155,0.231,0.442,-0.444,0.258,0.154,0.329,-0.570,0.424,0.105,-0.186,800.0,810.0,820.0,830.0,840.0,58.0,8.0,0.1,0.0,0.9,5.2,-3.7,1.8,1,1.0,1.0,1.0,1.0,85.0
2023-05-12 17:27:31.433,-1.261,-0.302,0.160,0.197,-1.116,-0.076,0.096,0.390,-0.766,0.181,0.232,0.469,-0.437,0.263,0.128,0.332,-0.565,0.393,0.120,-0.190,800.0,810.0,820.0,830.0,840.0,58.0,8.0,0.1,0.0,0.9,5.2,-3.7,1.8,1,1.0,1.0,1.0,1.0,85.0
2023-05-12 17:27:31.542,-1.305,-0.293,0.272,0.197,-1.101,-0.084,0.107,0.397,-0.766,0.160,0.233,0.486,-0.422,0.288,0.104,0.327,-0.562,0.391,0.117,-0.194,800.0,810.0,820.0,830.0,840.0,58.0,8.0,0.1,0.0,0.9,5.2,-3.7,1.8,1,1.0,1.0,1.0,1.0,85.0
2023-05-12 17:27:31.650,-1.439,-0.294,0.389,0.168,-1.077,-0.072,0.168,0.417,-0.757,0.160,0.233,0.486,-0.420,0.299,0.106,0.314,-0.553,0.398,0.112,-0.193,800.0,810.0,820.0,830.0,840.0,58.0,8.0,0.1,0.0,0.9,5.2,-3.7,1.8,1,1.0,1.0,1.0,1.0,85.0
2023-05-12 17:27:31.809,-1.478,-0.311,0.407,0.172,-1.073,-0.069,0.209,0.424,-0.672,0.160,0.239,0.477,-0.423,0.299,0.109,0.293,-0.511,0.428,0.107,-0.173,800.0,810.0,820.0,830.0,840.0,58.0,8.0,0.1,0.0,0.9,5.2,-3.7,1.8,1,1.0,1.0,1.0,1.0,85.0
2023-05-12 17:27:31.988,-1.480,-0.329,0.417,0.236,-1.074,-0.071,0.243,0.427,-0.658,0.170,0.276,0.475,-0.432,0.276,0.122,0.254,-0.486,0.454,0.109,-0.167,800.0,810.0,820.0,830.0,840.0,58.0,8.0,0.1,0.0,0.9,5.2,-3.7,1.8,1,1.0,1.0,1.0,1.0,85.0
2023-05-12 17:27:32.083,-1.465,-0.301,0.417,0.264,-1.071,-0.079,0.273,0.429,-0.630,0.170,0.324,0.474,-0.433,0.270,0.133,0.250,-0.454,0.512,0.114,-0.183,800.0,810.0,820.0,830.0,840.0,58.0,8.0,0.1,0.0,0.9,5.2,-3.7,1.8,1,1.0,1.0,1.0,1.0,85.0
2023-05-12 17:27:32.250,-1.453,-0.254,0.415,0.284,-1.061,-0.082,0.275,0.427,-0.606,0.163,0.388,0.494,-0.426,0.271,0.151,0.246,-0.452,0.536,0.111,-0.184,800.0,810.0,820.0,830.0,840.0,58.0,8.0,0.1,0.0,0.9,5.2,-3.7,1.8,1,1.0,1.0,1.0,1.0,85.0
2023-05-12 17:27:32.365,-1.412,-0.169,0.422,0.297,-1.046,-0.069,0.265,0.387,-0.606,0.163,0.396,0.503,-0.422,0.266,0.158,0.228,-0.461,0.553,0.100,-0.171,800.0,810.0,820.0,830.0,840.0,58.0,8.0,0.1,0.0,0.9,5.2,-3.7,1.8,1,1.0,1.0,1.0,1.0,85.0
2023-05-12 17:27:32.601,-1.365,-0.134,0.435,0.290,-1.051,-0.052,0.255,0.329,-0.568,0.163,0.417,0.502,-0.422,0.251,0.168,0.199,-0.513,0.566,0.054,-0.140,800.0,810.0,820.0,830.0,840.0,58.0,8.0,0.1,0.0,0.9,5.2,-3.7,1.8,1,1.0,1.0,1.0,1.0,85.0
2023-05-12 17:27:32.705,-1.267,-0.001,0.465,0.282,-1.067,-0.027,0.243,0.242,-0.572,0.167,0.383,0.452,-0.430,0.213,0.201,0.140,-0.536,0.566,0.029,-0.129,800.0,810.0,820.0,830.0,840.0,58.0,8.0,0.1,0.0,0.9,5.2,-3.7,1.8,1,1.0,1.0,1.0,1.0,85.0
2023-05-12 17:27:32.788,-1.239,0.130,0.470,0.290,-1.108,0.061,0.239,0.083,-0.566,0.189,0.342,0.446,-0.429,0.204,0.215,0.127,-0.535,0.571,0.003,-0.084,800.0,810.0,820.0,830.0,840.0,58.0,8.0,0.1,0.0,0.9,5.2,-3.7,1.8,1,1.0,1.0,1.0,1.0,85.0
2023-05-12 17:27:32.982,-1.232,0.267,0.453,0.303,-1.127,0.107,0.242,0.053,-0.556,0.195,0.312,0.420,-0.420,0.188,0.217,0.124,-0.526,0.573,0.004,-0.058,800.0,810.0,820.0,830.0,840.0,58.0,8.0,0.1,0.0,0.9,5.2,-3.7,1.8,1,1.0,1.0,1.0,1.0,85.0
2023-05-12 17:27:33.082,-1.256,0.434,0.362,0.321,-1.160,0.137,0.197,-0.007,-0.556,0.178,0.312,0.372,-0.423,0.169,0.213,0.127,-0.527,0.573,0.007,-0.043,800.0,810.0,820.0,830.0,840.0,58.0,8.0,0.1,0.0,0.9,5.2,-3.7,1.8,1,1.0,1.0,1.0,1.0,85.0
2023-05-12 17:27:33.303,-1.273,0.470,0.326,0.336,-1.172,0.124,0.139,-0.058,-0.532,0.168,0.312,0.325,-0.433,0.150,0.217,0.133,-0.560,0.582,0.031,-0.049,800.0,810.0,820.0,830.0,840.0,58.0,8.0,0.1,0.0,0.9,5.2,-3.7,1.8,1,1.0,1.0,1.0,1.0,85.0
2023-05-12 17:27:33.416,-1.296,0.513,0.323,0.371,-1.173,0.107,0.072,-0.102,-0.513,0.168,0.309,0.325,-0.456,0.161,0.233,0.147,-0.581,0.591,0.064,-0.053,800.0,810.0,820.0,830.0,840.0,58.0,8.0,0.1,0.0,0.9,5.2,-3.7,1.8,1,1.0,1.0,1.0,1.0,85.0
2023-05-12 17:27:33.475,-1.294,0.536,0.347,0.392,-1.123,0.080,-0.027,-0.119,-0.489,0.168,0.275,0.311,-0.462,0.187,0.232,0.147,-0.612,0.594,0.136,-0.030,800.0,810.0,820.0,830.0,840.0,58.0,8.0,0.1,0.0,0.9,5.2,-3.7,1.8,1,1.0,1.0,1.0,1.0,85.0
2023-05-12 17:27:33.699,-1.286,0.555,0.383,0.417,-1.079,0.072,-0.051,-0.105,-0.496,0.147,0.254,0.287,-0.469,0.220,0.221,0.126,-0.617,0.587,0.156,-0.015,800.0,810.0,820.0,830.0,840.0,58.0,8.0,0.1,0.0,0.9,5.2,-3.7,1.8,1,1.0,1.0,1.0,1.0,85.0
2023-05-12 17:27:33.837,-1.253,0.568,0.441,0.450,-1.022,0.058,-0.088,-0.074,-0.496,0.147,0.232,0.286,-0.472,0.226,0.220,0.111,-0.612,0.578,0.165,-0.006,800.0,810.0,820.0,830.0,840.0,58.0,8.0,0.1,0.0,0.9,5.2,-3.7,1.8,1,1.0,1.0,1.0,1.0,85.0
2023-05-12 17:27:33.972,-1.253,0.567,0.450,0.465,-1.015,0.045,-0.123,-0.069,-0.496,0.148,0.137,0.254,-0.479,0.236,0.217,0.099,-0.571,0.573,0.170,-0.004,800.0,810.0,820.0,830.0,840.0,58.0,8.0,0.1,0.0,0.9,5.2,-3.7,1.8,1,1.0,1.0,1.0,1.0,85.0
2023-05-12 17:27:34.117,-1.310,0.564,0.421,0.477,-1.010,0.027,-0.177,-0.069,-0.496,0.137,0.130,0.253,-0.511,0.275,0.189,0.096,-0.545,0.571,0.170,0.000,800.0,810.0,820.0,830.0,840.0,58.0,8.0,0.1,0.0,0.9,5.2,-3.7,1.8,1,1.0,1.0,1.0,1.0,85.0
2023-05-12 17:27:34.192,-1.347,0.546,0.378,0.469,-0.984,-0.044,-0.325,-0.069,-0.490,0.138,0.080,0.258,-0.534,0.290,0.162,0.107,-0.525,0.559,0.169,0.011,800.0,810.0,820.0,830.0,840.0,58.0,8.0,0.1,0.0,0.9,5.2,-3.7,1.8,1,1.0,1.0,1.0,1.0,85.0
2023-05-12 17:27:34.405,-1.376,0.502,0.314,0.453,-0.967,-0.112,-0.389,-0.062,-0.518,0.135,-0.039,0.236,-0.570,0.309,0.112,0.141,-0.537,0.551,0.163,0.011,800.0,810.0,820.0,830.0,840.0,58.0,8.0,0.1,0.0,0.9,5.2,-3.7,1.8,1,1.0,1.0,1.0,1.0,85.0
2023-05-12 17:27:34.532,-1.395,0.337,0.188,0.416,-0.936,-0.285,-0.394,-0.049,-0.550,0.122,-0.117,0.231,-0.577,0.323,0.100,0.154,-0.553,0.544,0.154,0.007,800.0,810.0,820.0,830.0,840.0,58.0,8.0,0.1,0.0,0.9,5.2,-3.7,1.8,1,1.0,1.0,1.0,1.0,85.0
2023-05-12 17:27:34.731,-1.393,0.255,0.167,0.402,-0.926,-0.335,-0.354,-0.057,-0.569,0.161,-0.132,0.250,-0.577,0.340,0.091,0.162,-0.567,0.537,0.136,-0.001,800.0,810.0,820.0,830.0,840.0,58.0,8.0,0.1,0.0,0.9,5.2,-3.7,1.8,1,1.0,1.0,1.0,1.0,85.0
2023-05-12 17:27:34.837,-1.356,0.147,0.148,0.353,-0.924,-0.334,-0.321,-0.071,-0.569,0.183,-0.146,0.250,-0.556,0.353,0.072,0.174,-0.565,0.537,0.122,0.004,800.0,810.0,820.0,830.0,840.0,58.0,8.0,0.1,0.0,0.9,5.2,-3.7,1.8,1,1.0,1.0,1.0,1.0,85.0
2023-05-12 17:27:34.902,-1.323,0.095,0.131,0.316,-0.951,-0.256,-0.298,-0.103,-0.578,0.183,-0.110,0.250,-0.542,0.345,0.074,0.181,-0.557,0.537,0.072,0.012,800.0,810.0,820.0,830.0,840.0,58.0,8.0,0.1,0.0,0.9,5.2,-3.7,1.8,1,1.0,1.0,1.0,1.0,85.0
2023-05-12 17:27:35.128,-1.303,0.028,0.090,0.267,-0.986,-0.222,-0.281,-0.115,-0.589,0.172,0.032,0.250,-0.512,0.317,0.101,0.185,-0.545,0.540,0.054,0.013,800.0,810.0,820.0,830.0,840.0,58.0,8.0,0.1,0.0,0.9,5.2,-3.7,1.8,1,1.0,1.0,1.0,1.0,85.0
2023-05-12 17:27:35.192,-1.318,-0.071,-0.088,0.129,-1.087,-0.188,-0.214,-0.105,-0.617,0.172,0.065,0.250,-0.495,0.302,0.112,0.186,-0.530,0.547,0.056,0.016,800.0,810.0,820.0,830.0,840.0,58.0,8.0,0.1,0.0,0.9,5.2,-3.7,1.8,1,1.0,1.0,1.0,1.0,85.0
2023-05-12 17:27:35.426,-1.338,-0.070,-0.183,0.065,-1.122,-0.185,-0.186,-0.086,-0.654,0.172,0.121,0.243,-0.478,0.286,0.120,0.189,-0.517,0.563,0.117,0.032,800.0,810.0,820.0,830.0,840.0,58.0,8.0,0.1,0.0,0.9,5.2,-3.7,1.8,1,1.0,1.0,1.0,1.0,85.0
2023-05-12 17:27:35.532,-1.333,-0.068,-0.263,-0.017,-1.140,-0.188,-0.172,-0.072,-0.655,0.172,0.121,0.194,-0.460,0.261,0.132,0.194,-0.523,0.562,0.163,0.037,800.0,810.0,820.0,830.0,840.0,58.0,8.0,0.1,0.0,0.9,5.2,-3.7,1.8,1,1.0,1.0,1.0,1.0,85.0
2023-05-12 17:27:35.639,-1.323,-0.079,-0.248,-0.015,-1.165,-0.190,-0.159,-0.073,-0.656,0.172,0.121,0.167,-0.455,0.270,0.139,0.193,-0.540,0.558,0.236,0.028,800.0,810.0,820.0,830.0,840.0,58.0,8.0,0.1,0.0,0.9,5.2,-3.7,1.8,1,1.0,1.0,1.0,1.0,85.0
2023-05-12 17:27:35.843,-1.321,-0.081,-0.213,0.020,-1.161,-0.179,-0.152,-0.076,-0.707,0.155,0.121,0.171,-0.446,0.340,0.138,0.173,-0.541,0.567,0.252,0.014,800.0,810.0,820.0,830.0,840.0,58.0,8.0,0.1,0.0,0.9,5.2,-3.7,1.8,1,1.0,1.0,1.0,1.0,85.0
2023-05-12 17:27:35.950,-1.317,-0.067,-0.132,0.091,-1.080,-0.136,-0.159,-0.063,-0.731,0.129,0.121,0.188,-0.451,0.369,0.128,0.159,-0.539,0.583,0.257,-0.003,800.0,810.0,820.0,830.0,840.0,58.0,8.0,0.1,0.0,0.9,5.2,-3.7,1.8,1,1.0,1.0,1.0,1.0,85.0
2023-05-12 17:27:36.153,-1.308,-0.066,-0.114,0.095,-1.042,-0.115,-0.178,-0.040,-0.744,0.097,0.121,0.238,-0.466,0.376,0.115,0.152,-0.540,0.615,0.264,-0.032,800.0,810.0,820.0,830.0,840.0,58.0,8.0,0.1,0.0,0.9,5.2,-3.7,1.8,1,1.0,1.0,1.0,1.0,85.0
2023-05-12 17:27:36.262,-1.292,-0.074,-0.130,0.052,-1.022,-0.103,-0.198,-0.006,-0.731,0.078,0.121,0.244,-0.508,0.357,0.098,0.152,-0.547,0.617,0.271,-0.044,800.0,810.0,820.0,830.0,840.0,58.0,8.0,0.1,0.0,0.9,5.2,-3.7,1.8,1,1.0,1.0,1.0,1.0,85.0
